Model Number: SPM-002-B   
Serial Number: 70087108
Firmware Version: 004.15.4
Exposure Time: 100000.000000us
Data Taken on: 15-01-2021 16:34:49.299
Wavelength	Amplitude
221.570786	0.000000
221.663406	0.000000
221.756027	0.000000
221.848648	0.000000
221.941269	0.000000
222.033905	0.000000
222.126526	0.000000
222.219162	0.000000
222.311798	0.000000
222.404419	0.000000
222.497055	0.000000
222.589676	0.000000
222.682312	0.000000
222.774933	0.000000
222.867569	0.000000
222.960205	0.000000
223.052841	0.000000
223.145462	0.000000
223.238098	0.000000
223.330734	0.000000
223.423386	0.000000
223.516022	0.000000
223.608658	0.000000
223.701309	0.000000
223.793945	0.000000
223.886581	0.000000
223.979218	0.000000
224.071869	0.000000
224.164505	0.000000
224.257156	0.000000
224.349792	0.000000
224.442444	0.000000
224.535095	0.000000
224.627747	0.000000
224.720398	0.000000
224.813034	0.000000
224.905685	0.000000
224.998337	153.660000
225.090988	153.040000
225.183640	153.000000
225.276291	152.660000
225.368942	152.920000
225.461594	153.000000
225.554245	153.380000
225.646912	153.440000
225.739578	154.360000
225.832230	154.680000
225.924896	153.940000
226.017548	154.120000
226.110199	155.140000
226.202866	154.340000
226.295532	154.200000
226.388184	154.220000
226.480850	153.680000
226.573517	152.760000
226.666168	152.920000
226.758835	153.140000
226.851501	153.860000
226.944183	153.980000
227.036850	153.820000
227.129517	153.820000
227.222183	153.720000
227.314850	153.280000
227.407516	153.840000
227.500198	154.920000
227.592865	154.720000
227.685532	154.420000
227.778214	154.520000
227.870880	154.500000
227.963562	154.520000
228.056229	155.020000
228.148926	154.780000
228.241592	155.780000
228.334274	155.280000
228.426956	154.760000
228.519638	154.700000
228.612305	154.640000
228.704987	153.980000
228.797668	154.120000
228.890350	153.740000
228.983032	152.920000
229.075714	153.860000
229.168396	153.440000
229.261108	153.080000
229.353790	153.280000
229.446472	153.900000
229.539169	153.680000
229.631851	153.340000
229.724533	153.620000
229.817230	153.880000
229.909912	154.820000
230.002609	154.580000
230.095306	154.880000
230.187988	155.080000
230.280685	154.440000
230.373383	153.080000
230.466095	152.860000
230.558792	152.860000
230.651474	152.580000
230.744171	152.620000
230.836868	152.640000
230.929581	152.760000
231.022278	152.900000
231.114975	152.920000
231.207672	153.040000
231.300369	153.620000
231.393082	153.880000
231.485779	153.800000
231.578506	153.880000
231.671204	154.100000
231.763916	153.860000
231.856613	153.560000
231.949326	153.840000
232.042023	153.880000
232.134735	153.760000
232.227448	153.640000
232.320160	154.220000
232.412872	154.100000
232.505585	154.920000
232.598297	155.400000
232.691010	155.300000
232.783722	154.560000
232.876450	155.000000
232.969162	154.340000
233.061874	153.800000
233.154587	153.760000
233.247314	154.260000
233.340027	153.660000
233.432739	154.100000
233.525467	153.860000
233.618179	154.200000
233.710907	153.620000
233.803635	153.980000
233.896347	153.260000
233.989090	154.260000
234.081818	154.400000
234.174545	154.820000
234.267258	154.740000
234.359985	155.160000
234.452713	154.720000
234.545441	154.480000
234.638168	154.160000
234.730896	154.500000
234.823639	154.200000
234.916367	154.380000
235.009094	154.180000
235.101822	154.220000
235.194580	153.920000
235.287308	154.240000
235.380051	153.700000
235.472778	154.240000
235.565521	154.700000
235.658249	154.220000
235.750992	154.020000
235.843719	154.160000
235.936462	154.180000
236.029205	153.480000
236.121948	153.440000
236.214691	153.720000
236.307449	154.380000
236.400192	153.680000
236.492935	153.800000
236.585678	154.120000
236.678421	154.000000
236.771164	153.460000
236.863907	154.080000
236.956665	154.240000
237.049408	155.940000
237.142151	155.440000
237.234909	156.460000
237.327652	156.220000
237.420410	156.240000
237.513153	154.720000
237.605927	154.780000
237.698669	153.720000
237.791428	152.920000
237.884186	153.340000
237.976944	152.980000
238.069702	153.280000
238.162445	152.740000
238.255203	153.460000
238.347961	153.540000
238.440720	153.740000
238.533478	153.700000
238.626266	153.780000
238.719025	153.840000
238.811783	153.420000
238.904541	153.400000
238.997314	153.260000
239.090073	152.980000
239.182831	153.340000
239.275604	154.420000
239.368362	154.200000
239.461136	154.420000
239.553909	154.940000
239.646667	154.500000
239.739441	153.540000
239.832214	153.720000
239.925003	153.640000
240.017761	154.300000
240.110535	154.840000
240.203308	154.680000
240.296082	155.080000
240.388855	155.200000
240.481628	155.040000
240.574417	155.200000
240.667191	155.020000
240.759964	154.160000
240.852737	154.280000
240.945526	153.920000
241.038315	153.400000
241.131088	153.740000
241.223877	154.080000
241.316650	153.320000
241.409439	153.680000
241.502228	153.540000
241.595001	153.920000
241.687790	153.740000
241.780579	154.280000
241.873367	154.200000
241.966141	154.420000
242.058929	153.660000
242.151718	154.180000
242.244507	154.360000
242.337311	153.920000
242.430099	154.440000
242.522903	154.880000
242.615692	154.540000
242.708481	154.540000
242.801270	155.000000
242.894073	154.800000
242.986862	155.000000
243.079651	155.640000
243.172455	155.200000
243.265244	155.320000
243.358063	154.560000
243.450867	154.620000
243.543655	154.180000
243.636459	154.220000
243.729263	154.380000
243.822067	154.960000
243.914856	155.520000
244.007660	155.480000
244.100464	155.440000
244.193268	154.680000
244.286072	154.300000
244.378876	153.340000
244.471680	153.100000
244.564499	153.640000
244.657318	154.360000
244.750122	154.720000
244.842926	154.180000
244.935745	154.880000
245.028549	154.620000
245.121368	154.020000
245.214172	153.880000
245.306992	154.860000
245.399796	154.120000
245.492615	154.160000
245.585434	154.260000
245.678253	154.460000
245.771072	153.900000
245.863892	154.400000
245.956711	154.360000
246.049530	154.140000
246.142349	153.400000
246.235168	153.520000
246.327988	153.740000
246.420807	153.600000
246.513626	153.860000
246.606445	154.140000
246.699280	154.120000
246.792099	154.060000
246.884918	154.020000
246.977753	154.080000
247.070587	153.920000
247.163422	154.020000
247.256241	153.780000
247.349075	154.220000
247.441895	154.420000
247.534729	154.420000
247.627563	154.520000
247.720383	155.160000
247.813217	154.660000
247.906052	154.100000
247.998886	154.220000
248.091736	153.760000
248.184570	153.020000
248.277405	153.220000
248.370239	154.180000
248.463074	155.260000
248.555908	155.880000
248.648743	155.780000
248.741592	156.000000
248.834427	154.980000
248.927261	153.760000
249.020111	153.920000
249.112946	154.640000
249.205795	154.040000
249.298630	154.660000
249.391495	154.700000
249.484344	154.160000
249.577179	154.280000
249.670029	154.700000
249.762878	154.880000
249.855728	155.040000
249.948563	155.120000
250.041412	153.980000
250.134262	154.080000
250.227112	153.980000
250.319962	154.080000
250.412827	154.140000
250.505692	154.080000
250.598541	154.060000
250.691391	153.660000
250.784241	153.680000
250.877106	153.880000
250.969955	154.060000
251.062805	154.280000
251.155670	155.140000
251.248520	154.800000
251.341385	155.040000
251.434235	155.020000
251.527100	154.460000
251.619965	153.860000
251.712814	155.000000
251.805695	154.700000
251.898560	154.780000
251.991425	155.020000
252.084290	155.100000
252.177155	154.140000
252.270020	153.900000
252.362885	154.140000
252.455750	154.440000
252.548615	154.220000
252.641479	154.220000
252.734360	154.260000
252.827240	154.080000
252.920105	154.020000
253.012970	153.740000
253.105850	153.800000
253.198715	153.420000
253.291595	153.520000
253.384460	153.120000
253.477341	153.100000
253.570221	153.280000
253.663086	153.380000
253.755966	154.020000
253.848846	154.120000
253.941727	154.360000
254.034592	154.180000
254.127472	153.540000
254.220367	153.160000
254.313248	153.520000
254.406128	153.280000
254.499008	153.720000
254.591904	154.960000
254.684784	155.320000
254.777664	155.060000
254.870544	154.920000
254.963440	154.580000
255.056335	154.260000
255.149216	153.640000
255.242111	153.940000
255.334991	154.680000
255.427887	154.740000
255.520767	154.980000
255.613663	154.860000
255.706558	154.380000
255.799438	153.720000
255.892334	153.560000
255.985229	153.360000
256.078125	153.680000
256.171021	154.000000
256.263916	154.580000
256.356812	154.800000
256.449707	154.700000
256.542603	154.540000
256.635498	154.860000
256.728394	154.660000
256.821289	154.320000
256.914215	154.860000
257.007080	155.060000
257.100006	154.900000
257.192932	155.160000
257.285828	155.340000
257.378723	154.640000
257.471619	154.500000
257.564545	153.680000
257.657440	153.660000
257.750336	154.200000
257.843262	154.340000
257.936157	155.400000
258.029053	155.900000
258.121979	155.960000
258.214874	155.540000
258.307800	155.400000
258.400696	154.220000
258.493622	154.240000
258.586517	153.080000
258.679443	153.180000
258.772339	152.940000
258.865265	153.100000
258.958160	152.640000
259.051086	153.980000
259.144012	153.960000
259.236938	154.840000
259.329834	154.780000
259.422791	155.040000
259.515717	154.280000
259.608612	153.920000
259.701538	153.720000
259.794464	153.620000
259.887390	153.540000
259.980316	153.400000
260.073212	153.060000
260.166138	152.160000
260.259064	152.580000
260.351990	153.220000
260.444916	153.540000
260.537842	154.380000
260.630768	155.440000
260.723694	155.220000
260.816620	154.880000
260.909546	154.920000
261.002472	154.440000
261.095398	153.860000
261.188354	153.800000
261.281281	153.220000
261.374207	153.040000
261.467133	153.880000
261.560089	154.040000
261.653015	154.000000
261.745972	154.900000
261.838867	155.580000
261.931824	155.400000
262.024780	154.920000
262.117706	155.060000
262.210663	155.020000
262.303589	154.600000
262.396515	154.660000
262.489471	155.520000
262.582397	155.120000
262.675354	154.320000
262.768280	154.120000
262.861237	153.760000
262.954163	153.500000
263.047119	153.800000
263.140045	153.740000
263.233002	153.980000
263.325958	153.940000
263.418884	153.380000
263.511841	153.420000
263.604797	153.680000
263.697723	153.440000
263.790680	153.320000
263.883636	154.140000
263.976593	154.100000
264.069550	154.300000
264.162476	154.400000
264.255463	154.240000
264.348419	153.600000
264.441376	153.780000
264.534332	153.280000
264.627289	153.340000
264.720245	154.200000
264.813202	154.020000
264.906158	154.000000
264.999115	154.700000
265.092072	154.540000
265.185028	154.640000
265.277985	155.140000
265.370941	154.940000
265.463898	154.380000
265.556854	154.140000
265.649811	153.180000
265.742798	153.080000
265.835754	153.140000
265.928711	154.140000
266.021667	154.420000
266.114655	154.560000
266.207611	154.860000
266.300568	154.200000
266.393585	153.480000
266.486511	153.840000
266.579498	153.260000
266.672485	152.980000
266.765442	153.260000
266.858429	153.820000
266.951385	153.120000
267.044342	153.780000
267.137329	153.640000
267.230316	154.020000
267.323273	153.560000
267.416260	154.240000
267.509216	154.080000
267.602203	154.080000
267.695160	154.400000
267.788147	154.340000
267.881134	153.840000
267.974091	154.000000
268.067078	153.960000
268.160065	153.840000
268.253052	153.520000
268.346008	153.700000
268.438995	153.500000
268.531982	153.620000
268.624969	153.060000
268.717987	153.760000
268.810944	153.740000
268.903961	153.860000
268.996948	153.560000
269.089905	154.140000
269.182892	154.080000
269.275879	154.380000
269.368866	154.100000
269.461853	154.300000
269.554871	154.020000
269.647858	153.840000
269.740845	153.880000
269.833832	154.200000
269.926819	153.820000
270.019806	154.000000
270.112793	153.440000
270.205811	153.300000
270.298798	152.960000
270.391785	153.900000
270.484772	153.500000
270.577789	153.980000
270.670776	153.840000
270.763763	153.940000
270.856750	153.600000
270.949768	153.580000
271.042786	153.500000
271.135773	153.260000
271.228790	153.440000
271.321808	153.000000
271.414795	152.400000
271.507782	152.480000
271.600800	152.300000
271.693817	152.700000
271.786804	153.140000
271.879822	153.760000
271.972809	153.700000
272.065826	154.320000
272.158844	153.560000
272.251831	154.340000
272.344849	154.500000
272.437866	154.360000
272.530853	154.440000
272.623871	154.860000
272.716888	153.520000
272.809906	153.820000
272.902893	153.600000
272.995911	152.900000
273.088928	152.660000
273.181946	153.220000
273.274963	152.640000
273.367981	152.880000
273.460999	152.980000
273.554047	153.380000
273.647003	153.760000
273.740051	153.940000
273.833069	153.980000
273.926086	154.480000
274.019135	154.480000
274.112152	154.040000
274.205170	154.140000
274.298187	154.460000
274.391205	154.080000
274.484222	154.000000
274.577240	153.900000
274.670258	153.800000
274.763306	153.740000
274.856323	154.220000
274.949341	154.000000
275.042358	154.400000
275.135406	154.540000
275.228424	154.360000
275.321442	154.200000
275.414490	154.020000
275.507507	154.300000
275.600525	154.440000
275.693573	154.020000
275.786591	153.540000
275.879669	153.820000
275.972656	153.420000
276.065735	153.220000
276.158752	154.040000
276.251801	154.960000
276.344818	154.940000
276.437866	154.680000
276.530884	154.480000
276.623932	153.740000
276.716980	153.660000
276.809998	154.080000
276.903046	154.140000
276.996094	155.000000
277.089111	155.740000
277.182159	156.120000
277.275208	155.720000
277.368256	156.040000
277.461304	155.460000
277.554321	154.560000
277.647369	153.920000
277.740417	153.660000
277.833466	153.200000
277.926514	152.960000
278.019562	153.880000
278.112610	153.400000
278.205688	153.800000
278.298706	154.020000
278.391785	153.960000
278.484833	153.280000
278.577881	153.440000
278.670929	153.600000
278.763977	153.760000
278.857025	154.120000
278.950073	154.280000
279.043121	154.200000
279.136169	153.800000
279.229248	153.260000
279.322296	153.120000
279.415344	153.140000
279.508392	153.080000
279.601440	153.160000
279.694519	153.280000
279.787567	153.180000
279.880615	152.980000
279.973694	152.920000
280.066742	153.140000
280.159790	153.500000
280.252869	153.220000
280.345917	153.360000
280.438995	153.560000
280.532074	153.280000
280.625122	153.440000
280.718201	154.620000
280.811279	154.680000
280.904327	154.500000
280.997406	154.700000
281.090454	154.620000
281.183533	153.760000
281.276581	153.880000
281.369659	153.740000
281.462738	153.740000
281.555786	153.720000
281.648865	153.740000
281.741943	153.580000
281.835022	154.420000
281.928070	154.340000
282.021149	154.060000
282.114227	154.080000
282.207306	153.960000
282.300385	154.100000
282.393433	154.160000
282.486511	154.400000
282.579590	155.060000
282.672668	155.540000
282.765747	154.640000
282.858856	154.380000
282.951904	154.480000
283.045013	154.580000
283.138062	154.440000
283.231171	154.860000
283.324249	155.260000
283.417328	155.260000
283.510406	154.580000
283.603485	154.520000
283.696564	154.420000
283.789642	154.280000
283.882751	153.880000
283.975830	154.600000
284.068909	154.180000
284.161987	154.560000
284.255066	154.300000
284.348175	154.640000
284.441254	154.140000
284.534332	154.560000
284.627441	154.280000
284.720520	154.120000
284.813599	154.000000
284.906708	154.080000
284.999786	153.460000
285.092896	153.180000
285.185974	154.160000
285.279053	153.700000
285.372192	153.580000
285.465240	154.620000
285.558380	154.380000
285.651459	153.700000
285.744568	154.940000
285.837677	154.540000
285.930756	154.140000
286.023865	154.540000
286.116943	154.340000
286.210052	154.040000
286.303162	154.300000
286.396240	154.240000
286.489349	154.120000
286.582458	154.580000
286.675568	153.880000
286.768646	153.860000
286.861755	154.140000
286.954865	154.820000
287.047974	154.020000
287.141083	154.240000
287.234161	154.080000
287.327271	153.640000
287.420380	153.580000
287.513519	153.900000
287.606598	154.000000
287.699738	154.400000
287.792816	154.480000
287.885956	154.140000
287.979034	154.080000
288.072174	154.120000
288.165283	153.880000
288.258392	154.080000
288.351501	153.540000
288.444611	153.800000
288.537720	154.000000
288.630859	154.000000
288.723969	153.800000
288.817078	154.620000
288.910187	154.320000
289.003296	153.640000
289.096436	153.160000
289.189545	153.360000
289.282654	152.520000
289.375763	153.140000
289.468903	153.760000
289.562012	154.180000
289.655121	153.860000
289.748260	154.260000
289.841400	154.340000
289.934509	154.080000
290.027649	154.320000
290.120728	154.440000
290.213898	154.640000
290.306976	154.320000
290.400146	154.600000
290.493256	154.060000
290.586395	154.400000
290.679535	154.420000
290.772644	154.220000
290.865784	153.440000
290.958893	154.080000
291.052032	154.020000
291.145172	154.160000
291.238281	153.880000
291.331421	154.220000
291.424561	153.880000
291.517670	153.460000
291.610809	153.340000
291.703949	153.520000
291.797089	153.720000
291.890228	153.620000
291.983337	153.380000
292.076477	153.200000
292.169617	153.460000
292.262756	153.520000
292.355927	153.900000
292.449036	153.920000
292.542206	153.900000
292.635315	153.980000
292.728485	154.280000
292.821625	153.560000
292.914764	155.080000
293.007904	155.440000
293.101044	155.540000
293.194183	155.060000
293.287323	155.340000
293.380463	154.300000
293.473602	154.060000
293.566742	154.200000
293.659882	154.840000
293.753021	155.060000
293.846191	154.800000
293.939331	154.340000
294.032471	153.900000
294.125610	153.240000
294.218781	153.540000
294.311920	154.280000
294.405060	154.660000
294.498230	154.920000
294.591370	155.220000
294.684540	154.640000
294.777679	153.700000
294.870850	154.020000
294.963959	153.720000
295.057159	153.200000
295.150299	153.440000
295.243469	153.580000
295.336609	152.780000
295.429779	153.060000
295.522919	153.960000
295.616089	154.100000
295.709229	154.760000
295.802399	155.440000
295.895569	154.940000
295.988708	154.340000
296.081879	154.380000
296.175018	153.900000
296.268188	153.700000
296.361359	154.360000
296.454529	154.560000
296.547668	154.580000
296.640839	154.940000
296.734009	154.740000
296.827179	154.620000
296.920319	154.700000
297.013519	154.400000
297.106659	154.360000
297.199860	154.420000
297.292999	154.400000
297.386200	154.080000
297.479309	153.840000
297.572510	153.640000
297.665680	153.500000
297.758850	153.300000
297.852020	153.320000
297.945190	153.340000
298.038361	153.040000
298.131531	154.120000
298.224701	154.040000
298.317871	153.860000
298.411072	153.480000
298.504242	153.460000
298.597412	152.320000
298.690582	152.440000
298.783752	152.320000
298.876923	153.180000
298.970093	153.320000
299.063293	153.860000
299.156464	154.400000
299.249634	154.940000
299.342834	154.880000
299.436005	155.240000
299.529205	154.940000
299.622345	155.020000
299.715576	154.200000
299.808716	153.860000
299.901917	153.560000
299.995117	154.000000
300.088287	153.820000
300.181488	153.960000
300.274658	153.920000
300.367828	153.920000
300.461029	153.580000
300.554199	153.760000
300.647400	153.860000
300.740601	154.520000
300.833771	154.640000
300.926971	155.020000
301.020142	154.220000
301.113342	154.260000
301.206512	154.180000
301.299713	154.440000
301.392914	154.240000
301.486084	154.880000
301.579285	155.180000
301.672516	155.160000
301.765686	154.940000
301.858887	154.860000
301.952057	154.380000
302.045288	154.120000
302.138458	153.740000
302.231659	153.680000
302.324860	153.740000
302.418060	153.540000
302.511261	153.540000
302.604462	154.020000
302.697662	153.640000
302.790863	153.280000
302.884064	153.140000
302.977264	153.160000
303.070465	152.980000
303.163666	153.840000
303.256866	154.320000
303.350067	154.420000
303.443268	154.540000
303.536469	154.920000
303.629669	154.440000
303.722870	154.180000
303.816071	154.120000
303.909271	154.180000
304.002472	153.360000
304.095673	153.260000
304.188934	152.940000
304.282104	154.120000
304.375336	154.240000
304.468506	154.200000
304.561768	154.020000
304.654968	154.660000
304.748169	153.860000
304.841370	153.460000
304.934601	153.880000
305.027802	153.620000
305.121002	152.920000
305.214233	152.900000
305.307434	153.200000
305.400665	153.700000
305.493866	153.620000
305.587097	154.200000
305.680298	153.720000
305.773499	154.140000
305.866730	153.760000
305.959930	154.620000
306.053162	154.500000
306.146393	154.660000
306.239594	153.780000
306.332825	153.580000
306.426025	153.720000
306.519287	153.280000
306.612488	153.640000
306.705719	153.920000
306.798920	154.120000
306.892181	153.400000
306.985352	153.480000
307.078613	152.920000
307.171844	153.500000
307.265045	153.180000
307.358276	153.440000
307.451508	153.800000
307.544739	154.700000
307.637970	154.220000
307.731201	154.260000
307.824402	154.720000
307.917633	155.080000
308.010864	155.440000
308.104095	155.920000
308.197327	156.260000
308.290558	155.760000
308.383789	155.240000
308.477020	154.620000
308.570251	153.740000
308.663483	152.900000
308.756714	153.140000
308.849976	153.520000
308.943176	153.900000
309.036438	153.920000
309.129639	154.300000
309.222900	154.160000
309.316101	153.600000
309.409393	152.680000
309.502625	152.740000
309.595856	152.780000
309.689087	152.680000
309.782318	152.980000
309.875580	153.540000
309.968811	153.920000
310.062042	153.800000
310.155273	153.920000
310.248535	154.220000
310.341766	154.080000
310.434998	153.760000
310.528259	153.840000
310.621490	154.500000
310.714722	153.900000
310.807983	153.960000
310.901215	154.080000
310.994476	154.320000
311.087708	153.260000
311.181000	153.800000
311.274200	153.480000
311.367462	153.500000
311.460693	152.860000
311.553986	154.080000
311.647186	154.300000
311.740479	155.020000
311.833710	154.600000
311.926971	154.940000
312.020203	153.840000
312.113464	153.180000
312.206726	152.380000
312.299957	152.900000
312.393219	153.500000
312.486481	153.660000
312.579712	153.940000
312.672974	154.200000
312.766235	154.180000
312.859497	153.740000
312.952759	153.900000
313.045990	154.600000
313.139252	154.080000
313.232513	154.080000
313.325775	154.160000
313.419037	153.840000
313.512299	152.640000
313.605530	153.580000
313.698822	153.520000
313.792053	153.820000
313.885345	153.560000
313.978577	153.880000
314.071869	153.380000
314.165131	153.720000
314.258392	153.600000
314.351654	153.920000
314.444916	153.320000
314.538177	153.880000
314.631439	153.860000
314.724701	153.380000
314.817993	153.180000
314.911255	153.480000
315.004517	152.820000
315.097778	152.760000
315.191040	153.420000
315.284302	154.080000
315.377594	154.100000
315.470856	154.280000
315.564117	153.720000
315.657379	153.060000
315.750671	152.280000
315.843933	152.780000
315.937195	152.240000
316.030518	152.420000
316.123749	152.640000
316.217041	153.580000
316.310303	153.420000
316.403595	154.080000
316.496857	154.320000
316.590149	154.600000
316.683411	153.940000
316.776703	153.680000
316.869965	153.380000
316.963257	153.100000
317.056519	152.440000
317.149811	152.200000
317.243073	152.540000
317.336365	152.880000
317.429626	153.220000
317.522919	153.740000
317.616180	154.240000
317.709473	153.800000
317.802765	153.840000
317.896027	153.660000
317.989319	154.120000
318.082611	153.760000
318.175873	153.760000
318.269165	153.720000
318.362488	153.840000
318.455750	153.340000
318.549042	153.620000
318.642303	154.280000
318.735626	153.760000
318.828888	153.720000
318.922211	153.220000
319.015472	153.920000
319.108765	152.900000
319.202057	152.780000
319.295349	152.860000
319.388641	153.100000
319.481934	152.480000
319.575226	152.960000
319.668518	153.560000
319.761810	153.800000
319.855103	153.940000
319.948395	153.860000
320.041687	154.060000
320.134979	153.860000
320.228271	153.300000
320.321564	153.480000
320.414856	153.600000
320.508148	153.160000
320.601440	153.180000
320.694763	153.420000
320.788025	154.000000
320.881348	154.120000
320.974640	154.440000
321.067963	153.740000
321.161224	153.580000
321.254547	152.600000
321.347839	153.200000
321.441162	153.020000
321.534454	153.800000
321.627747	153.400000
321.721069	154.100000
321.814362	153.880000
321.907654	153.920000
322.000946	153.560000
322.094269	154.460000
322.187561	154.140000
322.280884	154.060000
322.374176	154.160000
322.467468	154.800000
322.560791	154.660000
322.654083	155.000000
322.747406	154.760000
322.840698	154.860000
322.934021	155.180000
323.027344	155.040000
323.120636	154.400000
323.213959	154.660000
323.307251	154.380000
323.400574	153.760000
323.493866	153.520000
323.587219	153.920000
323.680511	153.940000
323.773834	153.820000
323.867157	153.800000
323.960449	154.180000
324.053772	153.820000
324.147095	153.740000
324.240387	154.560000
324.333710	154.800000
324.427032	154.680000
324.520355	154.940000
324.613647	154.600000
324.706970	154.060000
324.800293	153.820000
324.893616	154.140000
324.986938	154.160000
325.080231	154.140000
325.173553	154.620000
325.266876	155.300000
325.360199	155.240000
325.453522	154.760000
325.546875	154.460000
325.640167	154.400000
325.733521	154.320000
325.826813	154.540000
325.920166	154.500000
326.013489	154.740000
326.106812	153.680000
326.200134	152.860000
326.293457	152.120000
326.386780	152.520000
326.480103	152.360000
326.573425	152.800000
326.666748	152.980000
326.760071	153.500000
326.853424	153.560000
326.946747	153.900000
327.040070	154.720000
327.133392	154.440000
327.226715	153.440000
327.320068	152.880000
327.413391	153.160000
327.506714	151.940000
327.600037	152.000000
327.693390	152.740000
327.786713	153.180000
327.880066	152.960000
327.973358	153.800000
328.066742	154.440000
328.160034	154.720000
328.253418	154.800000
328.346710	154.320000
328.440063	153.800000
328.533417	153.440000
328.626740	153.380000
328.720093	153.180000
328.813416	153.180000
328.906769	153.200000
329.000092	153.180000
329.093445	152.940000
329.186768	152.780000
329.280121	153.400000
329.373444	153.900000
329.466797	153.880000
329.560120	154.000000
329.653473	154.180000
329.746796	153.900000
329.840149	153.600000
329.933502	153.620000
330.026825	153.520000
330.120178	153.220000
330.213562	153.060000
330.306854	153.200000
330.400238	153.300000
330.493561	152.920000
330.586945	153.700000
330.680237	153.880000
330.773621	154.000000
330.866974	153.840000
330.960327	154.640000
331.053680	154.520000
331.147003	154.800000
331.240356	154.740000
331.333710	155.000000
331.427063	154.320000
331.520416	153.940000
331.613770	153.620000
331.707123	153.800000
331.800476	153.940000
331.893829	155.060000
331.987152	155.380000
332.080505	155.580000
332.173859	155.280000
332.267212	154.820000
332.360565	154.060000
332.453918	153.660000
332.547333	153.360000
332.640656	153.560000
332.734039	154.020000
332.827362	153.780000
332.920746	154.320000
333.014069	154.760000
333.107452	155.320000
333.200806	155.420000
333.294159	155.820000
333.387543	155.180000
333.480896	154.800000
333.574249	154.240000
333.667603	153.680000
333.760956	153.580000
333.854340	153.720000
333.947693	153.540000
334.041046	153.560000
334.134430	154.040000
334.227783	153.740000
334.321136	153.880000
334.414520	153.560000
334.507874	153.380000
334.601227	153.260000
334.694611	153.400000
334.787964	153.720000
334.881348	154.440000
334.974701	154.440000
335.068085	154.040000
335.161438	154.240000
335.254822	153.840000
335.348175	153.600000
335.441559	153.320000
335.534943	154.000000
335.628296	153.660000
335.721680	153.380000
335.815033	153.860000
335.908417	154.300000
336.001770	153.920000
336.095154	153.820000
336.188538	153.960000
336.281891	153.280000
336.375275	152.840000
336.468658	152.600000
336.562012	152.920000
336.655396	153.320000
336.748779	153.740000
336.842133	153.760000
336.935516	153.960000
337.028900	153.400000
337.122284	153.200000
337.215637	153.220000
337.309021	153.260000
337.402435	153.220000
337.495789	153.480000
337.589203	153.520000
337.682526	153.280000
337.775940	153.820000
337.869324	154.100000
337.962708	154.020000
338.056091	154.320000
338.149475	153.960000
338.242859	153.860000
338.336243	153.400000
338.429626	153.660000
338.523010	153.680000
338.616394	153.940000
338.709778	153.880000
338.803162	154.000000
338.896545	154.140000
338.989929	153.440000
339.083313	153.380000
339.176697	152.940000
339.270081	152.860000
339.363464	152.980000
339.456848	153.640000
339.550232	153.220000
339.643616	153.240000
339.737030	153.400000
339.830383	153.040000
339.923828	152.740000
340.017181	153.140000
340.110596	153.340000
340.203949	153.160000
340.297363	152.620000
340.390778	152.600000
340.484161	152.540000
340.577545	152.660000
340.670959	152.820000
340.764343	153.220000
340.857727	153.440000
340.951111	152.980000
341.044525	152.840000
341.137909	152.640000
341.231293	152.740000
341.324707	152.160000
341.418091	153.200000
341.511505	153.340000
341.604889	153.400000
341.698303	153.200000
341.791687	153.520000
341.885071	153.060000
341.978485	152.940000
342.071899	153.320000
342.165283	153.760000
342.258698	154.240000
342.352081	154.420000
342.445496	154.940000
342.538879	154.680000
342.632324	154.380000
342.725708	153.920000
342.819122	153.460000
342.912506	152.840000
343.005920	152.980000
343.099335	153.980000
343.192719	153.880000
343.286133	153.880000
343.379547	154.060000
343.472931	154.000000
343.566345	152.840000
343.659760	153.260000
343.753143	153.260000
343.846558	153.140000
343.939972	153.060000
344.033386	153.780000
344.126770	153.360000
344.220184	153.560000
344.313599	154.140000
344.407043	154.020000
344.500427	153.100000
344.593872	153.980000
344.687225	153.720000
344.780670	153.100000
344.874054	153.140000
344.967499	153.700000
345.060913	153.040000
345.154327	153.240000
345.247742	152.940000
345.341156	152.800000
345.434570	152.640000
345.527985	152.540000
345.621399	152.360000
345.714813	152.520000
345.808228	152.960000
345.901642	152.880000
345.995056	152.700000
346.088470	152.980000
346.181885	153.280000
346.275299	152.660000
346.368713	152.440000
346.462128	152.320000
346.555573	152.440000
346.648987	152.560000
346.742401	152.640000
346.835815	153.400000
346.929260	153.380000
347.022644	153.120000
347.116119	153.320000
347.209503	153.720000
347.302948	154.180000
347.396362	154.740000
347.489807	154.840000
347.583221	155.040000
347.676636	154.900000
347.770050	153.720000
347.863495	153.000000
347.956909	152.920000
348.050323	152.300000
348.143768	152.320000
348.237183	152.400000
348.330597	153.360000
348.424042	153.640000
348.517456	154.040000
348.610901	153.940000
348.704315	153.960000
348.797760	153.260000
348.891174	152.580000
348.984619	151.920000
349.078033	152.480000
349.171448	153.260000
349.264923	153.220000
349.358337	153.480000
349.451782	153.820000
349.545197	152.900000
349.638641	152.240000
349.732086	152.080000
349.825500	152.840000
349.918945	152.520000
350.012390	153.480000
350.105804	153.960000
350.199249	154.480000
350.292664	154.720000
350.386108	155.320000
350.479553	155.500000
350.572968	155.280000
350.666412	155.100000
350.759857	154.400000
350.853302	154.460000
350.946716	153.500000
351.040161	153.340000
351.133606	153.260000
351.227081	153.080000
351.320465	153.660000
351.413940	153.880000
351.507355	153.980000
351.600830	154.220000
351.694244	154.060000
351.787720	153.320000
351.881104	153.560000
351.974579	153.460000
352.067993	154.360000
352.161469	154.780000
352.254883	154.580000
352.348358	154.280000
352.441803	154.300000
352.535248	153.400000
352.628693	153.620000
352.722137	153.440000
352.815582	153.960000
352.909027	154.320000
353.002472	154.280000
353.095917	154.060000
353.189362	154.620000
353.282806	154.520000
353.376251	153.920000
353.469696	153.520000
353.563141	153.860000
353.656586	153.440000
353.750061	152.760000
353.843475	153.020000
353.936981	153.720000
354.030396	153.040000
354.123871	153.060000
354.217285	154.300000
354.310760	154.680000
354.404175	154.420000
354.497681	154.260000
354.591095	154.120000
354.684570	152.640000
354.777985	152.160000
354.871490	152.100000
354.964935	153.040000
355.058380	153.360000
355.151855	153.440000
355.245300	153.820000
355.338745	154.040000
355.432220	153.600000
355.525665	152.860000
355.619110	153.480000
355.712585	153.320000
355.806030	153.080000
355.899475	152.480000
355.992950	153.420000
356.086426	153.700000
356.179871	153.600000
356.273346	153.700000
356.366791	154.260000
356.460266	154.160000
356.553711	153.580000
356.647186	153.740000
356.740631	153.520000
356.834106	153.080000
356.927551	152.880000
357.021027	153.020000
357.114471	152.640000
357.207947	152.860000
357.301422	153.420000
357.394867	153.560000
357.488342	153.640000
357.581818	153.740000
357.675262	153.860000
357.768738	153.400000
357.862213	152.520000
357.955658	152.860000
358.049133	152.900000
358.142609	152.840000
358.236053	152.940000
358.329529	153.560000
358.423035	153.460000
358.516449	153.100000
358.609955	153.440000
358.703400	154.300000
358.796906	154.440000
358.890350	153.840000
358.983826	154.560000
359.077271	153.840000
359.170776	152.960000
359.264221	152.900000
359.357727	153.460000
359.451172	153.420000
359.544647	153.580000
359.638123	153.640000
359.731598	154.040000
359.825073	154.200000
359.918549	154.140000
360.012024	154.420000
360.105499	154.140000
360.198975	153.880000
360.292450	153.680000
360.385925	153.360000
360.479401	152.480000
360.572876	153.140000
360.666351	153.200000
360.759857	153.120000
360.853302	153.120000
360.946808	153.260000
361.040253	153.080000
361.133759	152.760000
361.227203	153.060000
361.320709	152.920000
361.414154	153.560000
361.507660	153.820000
361.601105	154.480000
361.694641	154.620000
361.788086	154.640000
361.881592	154.840000
361.975067	154.260000
362.068542	154.340000
362.162018	154.220000
362.255524	153.940000
362.348999	153.720000
362.442474	154.140000
362.535950	153.500000
362.629456	153.000000
362.722931	153.220000
362.816406	153.520000
362.909882	153.800000
363.003387	153.580000
363.096863	154.220000
363.190338	154.580000
363.283875	154.360000
363.377319	153.900000
363.470825	154.500000
363.564301	153.720000
363.657806	153.820000
363.751282	153.320000
363.844788	154.260000
363.938232	153.840000
364.031769	154.820000
364.125214	154.960000
364.218750	155.740000
364.312225	154.580000
364.405731	154.840000
364.499207	154.220000
364.592712	153.960000
364.686188	153.500000
364.779694	153.660000
364.873169	153.760000
364.966675	153.880000
365.060150	153.780000
365.153656	154.200000
365.247131	154.420000
365.340637	154.440000
365.434143	154.620000
365.527618	154.760000
365.621155	154.020000
365.714600	154.160000
365.808136	154.000000
365.901611	153.080000
365.995117	152.840000
366.088593	152.880000
366.182129	152.540000
366.275604	152.760000
366.369110	152.940000
366.462585	153.060000
366.556122	153.880000
366.649567	153.740000
366.743103	153.460000
366.836609	153.460000
366.930115	153.660000
367.023590	153.500000
367.117096	153.740000
367.210602	153.760000
367.304108	154.780000
367.397614	155.020000
367.491119	155.180000
367.584595	155.060000
367.678101	155.260000
367.771606	154.560000
367.865112	154.240000
367.958649	153.300000
368.052124	153.220000
368.145660	152.800000
368.239136	153.360000
368.332672	153.200000
368.426147	153.680000
368.519684	153.660000
368.613159	154.220000
368.706696	153.460000
368.800171	153.640000
368.893707	153.500000
368.987183	153.660000
369.080719	153.680000
369.174225	153.860000
369.267731	154.040000
369.361237	154.100000
369.454742	154.120000
369.548248	154.420000
369.641754	154.260000
369.735260	153.960000
369.828766	153.240000
369.922272	153.860000
370.015808	152.880000
370.109314	152.820000
370.202820	152.640000
370.296356	154.000000
370.389832	153.240000
370.483368	153.080000
370.576874	152.900000
370.670410	153.320000
370.763885	152.240000
370.857422	152.320000
370.950928	152.540000
371.044464	153.620000
371.137939	153.360000
371.231476	153.920000
371.324982	154.460000
371.418518	154.960000
371.512024	154.460000
371.605560	154.160000
371.699066	154.200000
371.792572	153.820000
371.886108	153.900000
371.979614	153.740000
372.073120	154.500000
372.166656	154.500000
372.260162	154.620000
372.353668	153.980000
372.447205	153.760000
372.540710	153.400000
372.634277	153.100000
372.727753	153.140000
372.821320	153.420000
372.914795	153.760000
373.008362	153.620000
373.101837	153.900000
373.195404	153.600000
373.288879	153.440000
373.382446	153.720000
373.475922	153.700000
373.569489	154.260000
373.662964	155.060000
373.756531	155.280000
373.850037	155.160000
373.943573	155.220000
374.037109	153.960000
374.130615	153.580000
374.224152	153.640000
374.317657	153.520000
374.411194	154.660000
374.504730	155.020000
374.598236	154.580000
374.691772	154.220000
374.785309	154.020000
374.878815	152.680000
374.972351	153.360000
375.065887	153.420000
375.159454	154.380000
375.252930	154.160000
375.346497	154.540000
375.440002	154.400000
375.533569	154.500000
375.627045	153.580000
375.720612	153.900000
375.814117	153.780000
375.907684	153.460000
376.001160	153.280000
376.094727	152.760000
376.188232	153.440000
376.281799	153.680000
376.375336	153.700000
376.468872	154.240000
376.562408	154.960000
376.655914	154.460000
376.749451	154.220000
376.842987	154.620000
376.936523	154.220000
377.030060	154.300000
377.123596	154.320000
377.217133	153.880000
377.310669	153.440000
377.404205	153.640000
377.497772	153.600000
377.591278	153.400000
377.684845	154.280000
377.778351	154.680000
377.871918	154.360000
377.965424	153.920000
378.058990	153.560000
378.152496	153.040000
378.246063	152.900000
378.339569	153.200000
378.433136	153.360000
378.526642	153.640000
378.620209	153.820000
378.713745	153.460000
378.807312	153.860000
378.900848	153.800000
378.994385	154.180000
379.087921	153.240000
379.181458	153.640000
379.274994	152.900000
379.368530	153.020000
379.462097	152.900000
379.555634	153.760000
379.649170	153.020000
379.742706	153.000000
379.836273	153.360000
379.929810	153.080000
380.023376	152.860000
380.116882	153.000000
380.210449	153.200000
380.303986	152.720000
380.397552	152.200000
380.491058	152.700000
380.584656	152.500000
380.678162	152.340000
380.771729	152.380000
380.865265	153.600000
380.958832	153.280000
381.052368	153.760000
381.145935	154.300000
381.239471	154.920000
381.333008	154.400000
381.426575	154.340000
381.520111	154.580000
381.613647	154.680000
381.707214	154.240000
381.800751	153.780000
381.894318	154.120000
381.987854	153.400000
382.081421	153.040000
382.174988	153.180000
382.268524	153.180000
382.362091	152.960000
382.455627	154.080000
382.549194	153.540000
382.642731	152.720000
382.736298	152.760000
382.829834	152.760000
382.923401	152.880000
383.016937	153.440000
383.110504	154.400000
383.204041	154.720000
383.297607	154.880000
383.391174	153.800000
383.484741	154.500000
383.578278	153.520000
383.671844	153.120000
383.765411	152.220000
383.858948	153.100000
383.952515	152.480000
384.046051	153.560000
384.139618	154.040000
384.233185	154.960000
384.326721	154.580000
384.420288	155.140000
384.513855	154.900000
384.607422	155.040000
384.700989	155.080000
384.794525	154.480000
384.888123	154.360000
384.981659	154.340000
385.075226	153.880000
385.168762	153.600000
385.262360	154.040000
385.355896	152.800000
385.449463	152.500000
385.542999	152.600000
385.636597	153.300000
385.730164	153.560000
385.823730	153.740000
385.917267	153.600000
386.010834	154.200000
386.104401	153.880000
386.197968	154.140000
386.291534	154.640000
386.385101	154.940000
386.478668	155.020000
386.572235	154.840000
386.665802	154.180000
386.759338	153.760000
386.852905	153.560000
386.946472	152.800000
387.040070	152.980000
387.133606	153.060000
387.227203	153.200000
387.320740	153.600000
387.414337	153.360000
387.507874	152.920000
387.601471	153.160000
387.695007	152.920000
387.788605	152.460000
387.882141	152.940000
387.975739	153.240000
388.069275	152.900000
388.162872	153.240000
388.256439	153.160000
388.350037	152.780000
388.443604	152.680000
388.537170	152.880000
388.630737	153.480000
388.724304	153.700000
388.817871	154.040000
388.911438	154.060000
389.005005	154.260000
389.098602	154.140000
389.192169	153.940000
389.285736	154.300000
389.379333	154.260000
389.472870	153.720000
389.566467	153.620000
389.660034	153.800000
389.753632	153.200000
389.847168	153.580000
389.940765	154.000000
390.034332	154.120000
390.127930	153.920000
390.221466	154.060000
390.315063	153.340000
390.408630	152.620000
390.502228	151.700000
390.595795	151.820000
390.689362	151.800000
390.782959	152.320000
390.876526	153.180000
390.970093	153.240000
391.063690	153.620000
391.157257	153.760000
391.250824	154.220000
391.344421	154.080000
391.437988	154.640000
391.531555	154.560000
391.625153	154.640000
391.718750	154.660000
391.812317	154.280000
391.905914	153.820000
391.999481	154.080000
392.093079	153.900000
392.186615	154.060000
392.280243	154.060000
392.373779	154.440000
392.467407	154.900000
392.560944	154.720000
392.654572	154.080000
392.748108	154.280000
392.841736	154.520000
392.935303	153.860000
393.028900	153.880000
393.122467	153.740000
393.216064	153.460000
393.309631	152.520000
393.403229	152.300000
393.496796	152.240000
393.590393	151.680000
393.683990	151.960000
393.777557	153.000000
393.871155	152.920000
393.964722	153.440000
394.058350	153.860000
394.151917	154.000000
394.245514	153.300000
394.339081	154.140000
394.432678	154.100000
394.526245	154.160000
394.619873	153.660000
394.713409	153.940000
394.807037	153.060000
394.900604	153.380000
394.994202	153.280000
395.087769	153.860000
395.181396	153.360000
395.274994	154.520000
395.368561	153.480000
395.462158	153.820000
395.555756	153.280000
395.649353	153.960000
395.742920	152.900000
395.836517	153.860000
395.930115	152.920000
396.023712	153.140000
396.117279	153.200000
396.210876	152.980000
396.304474	152.560000
396.398071	153.440000
396.491669	153.680000
396.585266	153.220000
396.678833	153.280000
396.772461	153.680000
396.866028	153.160000
396.959656	153.180000
397.053223	153.680000
397.146851	153.420000
397.240417	153.240000
397.334015	154.180000
397.427582	153.820000
397.521210	153.720000
397.614807	154.380000
397.708405	154.360000
397.802002	153.800000
397.895599	154.620000
397.989197	154.400000
398.082794	154.120000
398.176392	154.500000
398.269989	154.780000
398.363586	154.680000
398.457184	155.660000
398.550781	156.180000
398.644379	155.820000
398.737976	156.040000
398.831573	157.060000
398.925201	157.720000
399.018768	160.080000
399.112396	164.400000
399.205963	171.120000
399.299591	181.260000
399.393158	198.460000
399.486786	229.640000
399.580353	286.260000
399.673981	386.480000
399.767578	545.780000
399.861206	757.140000
399.954773	989.240000
400.048401	1177.860000
400.141998	1271.180000
400.235596	1241.740000
400.329193	1101.440000
400.422791	887.880000
400.516418	666.600000
400.610016	481.660000
400.703613	350.500000
400.797211	266.040000
400.890808	218.080000
400.984436	192.620000
401.078033	179.080000
401.171631	170.520000
401.265259	166.380000
401.358826	163.620000
401.452484	161.700000
401.546051	160.480000
401.639679	159.460000
401.733246	158.920000
401.826904	157.760000
401.920471	156.660000
402.014099	156.020000
402.107697	155.760000
402.201324	155.560000
402.294891	155.640000
402.388550	156.000000
402.482147	156.000000
402.575745	155.660000
402.669373	155.360000
402.762970	154.860000
402.856567	154.740000
402.950195	154.620000
403.043793	154.420000
403.137390	155.040000
403.231018	154.460000
403.324615	155.200000
403.418243	154.680000
403.511841	155.240000
403.605469	154.660000
403.699066	155.240000
403.792694	154.480000
403.886292	154.960000
403.979919	154.540000
404.073517	154.540000
404.167145	154.680000
404.260712	154.820000
404.354370	154.320000
404.447937	154.440000
404.541595	154.280000
404.635162	154.640000
404.728821	155.200000
404.822418	154.880000
404.916046	154.560000
405.009644	154.860000
405.103271	154.780000
405.196899	153.940000
405.290497	154.740000
405.384125	155.100000
405.477722	154.280000
405.571350	153.580000
405.664948	153.840000
405.758575	153.220000
405.852203	152.880000
405.945801	153.240000
406.039429	153.460000
406.133057	153.380000
406.226654	153.480000
406.320312	153.640000
406.413879	153.720000
406.507538	153.920000
406.601135	153.340000
406.694763	153.800000
406.788361	153.520000
406.882019	153.140000
406.975586	153.700000
407.069244	154.560000
407.162872	154.360000
407.256470	154.500000
407.350098	154.660000
407.443726	153.880000
407.537323	153.040000
407.630951	153.440000
407.724579	153.220000
407.818207	153.820000
407.911804	153.720000
408.005432	154.020000
408.099060	154.100000
408.192688	154.820000
408.286285	154.540000
408.379913	154.400000
408.473572	154.620000
408.567169	153.820000
408.660828	153.380000
408.754395	152.980000
408.848053	152.860000
408.941650	152.920000
409.035309	152.520000
409.128906	152.680000
409.222565	153.120000
409.316132	153.580000
409.409790	153.040000
409.503387	153.340000
409.597046	153.380000
409.690674	153.300000
409.784302	153.420000
409.877930	153.680000
409.971558	154.220000
410.065186	153.760000
410.158783	153.700000
410.252411	153.640000
410.346039	153.800000
410.439667	153.300000
410.533295	153.680000
410.626923	153.920000
410.720551	153.240000
410.814209	153.720000
410.907806	154.020000
411.001465	153.400000
411.095062	153.540000
411.188721	154.200000
411.282318	153.620000
411.375977	153.360000
411.469574	154.100000
411.563232	153.700000
411.656830	153.480000
411.750488	153.420000
411.844086	153.420000
411.937744	153.460000
412.031372	153.360000
412.125000	153.360000
412.218628	153.660000
412.312256	154.420000
412.405884	154.520000
412.499512	154.300000
412.593170	154.440000
412.686798	154.200000
412.780426	153.520000
412.874054	153.620000
412.967682	153.940000
413.061310	154.420000
413.154968	154.560000
413.248566	154.700000
413.342224	154.000000
413.435852	153.960000
413.529510	153.560000
413.623108	152.860000
413.716766	152.940000
413.810364	153.760000
413.904022	153.200000
413.997650	152.900000
414.091309	154.160000
414.184906	154.000000
414.278564	153.440000
414.372192	154.280000
414.465851	154.560000
414.559479	153.920000
414.653107	154.540000
414.746735	154.200000
414.840393	153.880000
414.934021	154.080000
415.027649	153.720000
415.121277	153.680000
415.214935	154.380000
415.308563	154.660000
415.402191	154.160000
415.495850	154.260000
415.589478	153.640000
415.683136	153.060000
415.776733	153.140000
415.870422	153.740000
415.964020	153.120000
416.057678	153.420000
416.151306	153.840000
416.244965	153.840000
416.338562	153.540000
416.432251	154.900000
416.525848	155.500000
416.619507	155.740000
416.713165	155.700000
416.806793	155.560000
416.900421	155.400000
416.994080	154.420000
417.087708	154.200000
417.181366	154.040000
417.274994	154.320000
417.368622	154.420000
417.462280	155.320000
417.555908	155.060000
417.649567	154.740000
417.743195	154.560000
417.836853	154.080000
417.930481	153.900000
418.024170	154.180000
418.117767	154.940000
418.211426	155.080000
418.305054	155.400000
418.398712	154.840000
418.492340	154.780000
418.585999	154.660000
418.679626	154.620000
418.773285	154.620000
418.866913	154.960000
418.960571	155.120000
419.054230	155.180000
419.147858	155.200000
419.241516	155.080000
419.335144	154.500000
419.428802	154.540000
419.522461	154.100000
419.616089	153.920000
419.709747	154.100000
419.803375	154.540000
419.897034	153.980000
419.990662	154.040000
420.084320	154.380000
420.177979	154.480000
420.271606	154.620000
420.365295	155.280000
420.458893	155.480000
420.552582	155.640000
420.646210	155.220000
420.739868	154.880000
420.833496	154.260000
420.927155	154.020000
421.020782	153.560000
421.114471	153.240000
421.208069	153.400000
421.301758	153.960000
421.395386	154.180000
421.489044	154.140000
421.582703	154.240000
421.676361	154.520000
421.769989	153.860000
421.863647	154.020000
421.957306	154.060000
422.050934	154.320000
422.144592	154.160000
422.238251	153.820000
422.331909	153.540000
422.425537	153.280000
422.519196	153.200000
422.612854	152.780000
422.706543	153.000000
422.800140	153.540000
422.893829	153.520000
422.987457	153.180000
423.081146	153.780000
423.174744	154.620000
423.268433	153.580000
423.362061	153.740000
423.455750	153.940000
423.549347	153.640000
423.643036	152.860000
423.736664	154.060000
423.830353	154.140000
423.924011	154.660000
424.017639	154.380000
424.111298	154.320000
424.204956	153.580000
424.298615	153.700000
424.392273	153.440000
424.485931	153.780000
424.579559	154.220000
424.673218	154.080000
424.766876	153.840000
424.860535	153.460000
424.954193	153.280000
425.047882	153.740000
425.141510	153.980000
425.235199	154.400000
425.328796	154.440000
425.422485	154.400000
425.516113	153.660000
425.609802	153.560000
425.703430	153.540000
425.797119	153.640000
425.890747	153.580000
425.984436	153.500000
426.078064	153.860000
426.171753	153.680000
426.265411	153.700000
426.359070	154.220000
426.452728	154.560000
426.546356	154.380000
426.640015	154.320000
426.733673	154.280000
426.827332	153.520000
426.920990	154.140000
427.014648	153.960000
427.108307	154.180000
427.201965	154.980000
427.295624	155.820000
427.389282	155.160000
427.482941	155.380000
427.576630	155.260000
427.670258	154.220000
427.763947	153.560000
427.857574	153.320000
427.951263	153.040000
428.044922	152.740000
428.138611	152.840000
428.232239	153.480000
428.325928	154.180000
428.419556	154.800000
428.513245	154.760000
428.606903	155.440000
428.700562	155.140000
428.794220	154.200000
428.887878	153.660000
428.981537	154.100000
429.075195	153.940000
429.168854	154.340000
429.262512	155.040000
429.356201	155.220000
429.449860	155.040000
429.543518	154.920000
429.637177	155.140000
429.730835	154.860000
429.824493	154.760000
429.918182	155.200000
430.011810	154.720000
430.105530	153.980000
430.199158	154.260000
430.292847	154.200000
430.386475	153.660000
430.480164	153.780000
430.573792	153.500000
430.667511	153.520000
430.761139	153.640000
430.854828	154.180000
430.948456	154.520000
431.042145	155.260000
431.135834	155.040000
431.229492	154.800000
431.323151	154.720000
431.416809	154.420000
431.510468	154.480000
431.604156	154.560000
431.697815	154.860000
431.791473	154.300000
431.885132	154.220000
431.978821	154.480000
432.072479	154.560000
432.166138	154.640000
432.259827	154.420000
432.353485	154.980000
432.447174	154.680000
432.540802	154.580000
432.634491	154.900000
432.728149	155.680000
432.821838	155.900000
432.915466	155.500000
433.009186	155.720000
433.102814	155.100000
433.196503	154.720000
433.290131	154.520000
433.383850	154.920000
433.477509	155.040000
433.571167	155.700000
433.664856	156.360000
433.758514	156.680000
433.852173	156.400000
433.945862	155.960000
434.039520	155.920000
434.133179	155.280000
434.226868	154.720000
434.320526	154.140000
434.414185	154.980000
434.507874	154.400000
434.601562	154.840000
434.695221	154.600000
434.788910	155.300000
434.882538	155.120000
434.976257	154.820000
435.069885	154.680000
435.163574	155.060000
435.257233	154.400000
435.350922	154.060000
435.444580	154.160000
435.538269	153.960000
435.631897	154.460000
435.725616	155.520000
435.819275	156.000000
435.912964	156.560000
436.006622	156.740000
436.100311	156.380000
436.193970	155.480000
436.287628	154.740000
436.381317	154.640000
436.474976	154.200000
436.568665	153.700000
436.662323	153.780000
436.756012	153.820000
436.849670	153.480000
436.943390	153.420000
437.037018	153.420000
437.130737	153.680000
437.224365	153.640000
437.318085	154.040000
437.411713	154.380000
437.505432	154.820000
437.599060	155.200000
437.692780	156.060000
437.786407	155.860000
437.880127	155.760000
437.973755	155.380000
438.067474	155.060000
438.161133	154.640000
438.254822	154.960000
438.348480	154.460000
438.442169	155.140000
438.535828	155.160000
438.629517	154.700000
438.723175	153.800000
438.816864	154.800000
438.910553	154.120000
439.004211	153.820000
439.097900	153.700000
439.191559	154.160000
439.285248	153.320000
439.378906	153.660000
439.472626	153.900000
439.566284	154.080000
439.659973	154.260000
439.753632	154.360000
439.847321	154.580000
439.940979	154.600000
440.034698	154.540000
440.128326	153.840000
440.222046	153.780000
440.315674	152.860000
440.409393	152.640000
440.503082	152.700000
440.596741	153.500000
440.690430	153.580000
440.784088	153.800000
440.877777	153.500000
440.971466	153.400000
441.065125	152.900000
441.158813	152.920000
441.252502	152.960000
441.346161	153.180000
441.439850	153.500000
441.533539	153.660000
441.627197	153.820000
441.720886	153.720000
441.814606	154.100000
441.908234	154.180000
442.001953	154.040000
442.095612	154.080000
442.189301	154.360000
442.282959	154.120000
442.376678	153.480000
442.470306	154.380000
442.564026	154.140000
442.657684	154.140000
442.751404	154.280000
442.845032	155.060000
442.938751	154.180000
443.032440	154.380000
443.126099	154.280000
443.219788	154.960000
443.313477	154.260000
443.407166	154.540000
443.500824	154.520000
443.594513	154.640000
443.688202	154.000000
443.781891	154.000000
443.875549	153.700000
443.969238	153.720000
444.062927	153.800000
444.156647	153.720000
444.250275	154.220000
444.343994	154.220000
444.437653	154.340000
444.531372	154.220000
444.625031	154.020000
444.718719	153.400000
444.812378	153.680000
444.906097	153.300000
444.999756	152.920000
445.093445	153.160000
445.187103	153.360000
445.280823	153.760000
445.374512	153.420000
445.468201	153.660000
445.561859	153.360000
445.655548	153.660000
445.749237	153.080000
445.842926	153.420000
445.936615	153.740000
446.030304	153.800000
446.123962	153.880000
446.217651	153.940000
446.311340	154.240000
446.405029	153.580000
446.498749	153.400000
446.592407	153.080000
446.686096	153.120000
446.779755	152.880000
446.873474	153.600000
446.967133	154.160000
447.060852	154.040000
447.154510	153.860000
447.248230	154.100000
447.341858	153.740000
447.435577	152.940000
447.529236	152.860000
447.622955	152.820000
447.716644	152.760000
447.810333	153.160000
447.904022	153.820000
447.997711	153.880000
448.091400	154.300000
448.185059	154.200000
448.278748	154.060000
448.372437	153.880000
448.466125	154.120000
448.559814	153.920000
448.653503	154.380000
448.747192	154.640000
448.840912	154.880000
448.934570	154.600000
449.028290	154.940000
449.121948	154.540000
449.215637	153.860000
449.309296	153.580000
449.403015	154.200000
449.496674	154.040000
449.590393	154.060000
449.684052	154.020000
449.777771	154.800000
449.871429	153.600000
449.965149	153.360000
450.058838	153.600000
450.152527	154.140000
450.246216	153.800000
450.339905	154.420000
450.433594	154.120000
450.527283	154.760000
450.620972	154.320000
450.714661	153.980000
450.808350	153.920000
450.902039	154.400000
450.995728	153.620000
451.089417	153.540000
451.183105	153.340000
451.276794	154.140000
451.370514	153.320000
451.464172	152.640000
451.557892	152.800000
451.651550	153.080000
451.745270	152.120000
451.838928	152.020000
451.932648	152.580000
452.026306	153.020000
452.120026	152.720000
452.213684	153.140000
452.307404	153.900000
452.401062	153.860000
452.494781	154.120000
452.588470	154.180000
452.682159	153.980000
452.775848	153.940000
452.869537	153.660000
452.963226	152.840000
453.056915	152.880000
453.150604	152.960000
453.244293	153.080000
453.337982	153.860000
453.431671	154.320000
453.525360	154.780000
453.619049	154.920000
453.712769	154.740000
453.806427	153.960000
453.900146	153.400000
453.993805	153.240000
454.087555	153.580000
454.181213	153.600000
454.274933	153.600000
454.368591	153.900000
454.462311	153.560000
454.555969	152.940000
454.649689	153.640000
454.743347	153.580000
454.837067	154.040000
454.930756	154.660000
455.024445	154.580000
455.118134	153.940000
455.211853	154.200000
455.305542	153.740000
455.399231	153.280000
455.492920	153.680000
455.586609	153.560000
455.680298	153.920000
455.773987	153.460000
455.867676	153.600000
455.961365	153.800000
456.055084	153.800000
456.148773	153.160000
456.242493	153.800000
456.336151	153.900000
456.429871	153.760000
456.523529	153.960000
456.617249	154.160000
456.710907	154.500000
456.804626	154.200000
456.898315	153.700000
456.992035	153.720000
457.085693	153.260000
457.179413	152.440000
457.273102	153.400000
457.366791	153.560000
457.460480	153.680000
457.554199	154.900000
457.647888	155.140000
457.741577	154.280000
457.835266	154.540000
457.928955	154.580000
458.022644	154.360000
458.116364	154.800000
458.210052	154.880000
458.303741	154.880000
458.397461	154.440000
458.491119	153.640000
458.584839	153.160000
458.678528	152.880000
458.772247	152.340000
458.865906	152.520000
458.959625	153.720000
459.053284	153.980000
459.147003	153.940000
459.240692	154.880000
459.334412	154.960000
459.428070	154.220000
459.521790	153.940000
459.615479	154.020000
459.709198	154.380000
459.802887	154.000000
459.896576	153.780000
459.990265	154.000000
460.083954	154.240000
460.177673	153.340000
460.271362	153.600000
460.365051	153.820000
460.458740	153.580000
460.552429	152.940000
460.646149	153.160000
460.739838	152.840000
460.833527	152.620000
460.927246	152.640000
461.020905	152.940000
461.114655	152.620000
461.208313	153.040000
461.302032	152.720000
461.395691	152.980000
461.489441	153.020000
461.583099	153.020000
461.676819	152.360000
461.770477	152.860000
461.864197	152.580000
461.957916	152.560000
462.051605	152.140000
462.145294	153.700000
462.238983	153.560000
462.332703	154.020000
462.426392	154.800000
462.520081	155.140000
462.613770	154.020000
462.707489	154.260000
462.801178	153.840000
462.894867	153.360000
462.988556	153.440000
463.082275	153.540000
463.175964	153.240000
463.269684	153.780000
463.363342	153.740000
463.457092	153.100000
463.550751	153.500000
463.644470	153.560000
463.738129	152.940000
463.831879	152.800000
463.925537	154.000000
464.019257	154.080000
464.112946	154.340000
464.206665	154.180000
464.300323	154.180000
464.394043	153.780000
464.487762	153.520000
464.581451	153.960000
464.675140	154.380000
464.768829	154.800000
464.862549	155.060000
464.956238	155.200000
465.049927	154.980000
465.143646	154.840000
465.237335	154.380000
465.331024	154.460000
465.424713	154.160000
465.518433	154.100000
465.612152	154.020000
465.705811	154.020000
465.799561	153.920000
465.893219	154.000000
465.986938	153.600000
466.080597	153.420000
466.174347	153.980000
466.268005	153.940000
466.361725	154.000000
466.455414	154.120000
466.549133	154.360000
466.642792	154.080000
466.736542	153.540000
466.830231	153.520000
466.923920	153.420000
467.017609	153.060000
467.111328	152.580000
467.205017	152.620000
467.298706	152.380000
467.392426	152.560000
467.486115	153.360000
467.579803	153.400000
467.673523	154.080000
467.767212	154.520000
467.860901	154.540000
467.954651	154.340000
468.048309	154.800000
468.142029	154.300000
468.235718	154.120000
468.329437	153.520000
468.423096	153.460000
468.516846	153.180000
468.610504	152.740000
468.704224	152.300000
468.797913	152.280000
468.891632	152.280000
468.985291	152.400000
469.079010	152.660000
469.172729	152.620000
469.266418	153.300000
469.360107	153.240000
469.453827	152.920000
469.547516	153.080000
469.641205	153.420000
469.734924	153.520000
469.828613	153.620000
469.922302	153.800000
470.016022	154.000000
470.109711	154.060000
470.203430	153.380000
470.297150	152.700000
470.390808	153.220000
470.484558	152.840000
470.578217	153.160000
470.671936	153.780000
470.765625	154.980000
470.859344	154.340000
470.953003	155.000000
471.046753	154.460000
471.140411	153.820000
471.234131	153.380000
471.327820	154.020000
471.421539	153.420000
471.515228	153.180000
471.608948	153.320000
471.702637	152.840000
471.796326	152.160000
471.890045	152.580000
471.983734	152.960000
472.077423	152.980000
472.171143	153.180000
472.264832	153.060000
472.358521	152.680000
472.452240	152.380000
472.545929	153.300000
472.639648	153.400000
472.733337	154.060000
472.827057	154.340000
472.920746	154.300000
473.014465	154.120000
473.108124	154.360000
473.201874	154.540000
473.295532	154.360000
473.389252	155.040000
473.482941	154.680000
473.576660	154.220000
473.670319	153.780000
473.764069	154.120000
473.857727	154.120000
473.951477	154.460000
474.045166	155.080000
474.138855	154.740000
474.232574	154.140000
474.326263	154.000000
474.419952	154.000000
474.513672	153.660000
474.607361	153.540000
474.701050	154.240000
474.794769	154.460000
474.888458	154.600000
474.982178	154.820000
475.075867	155.120000
475.169586	154.660000
475.263275	154.000000
475.356995	153.280000
475.450653	152.520000
475.544403	152.220000
475.638062	153.120000
475.731812	152.980000
475.825470	152.960000
475.919189	153.520000
476.012878	154.000000
476.106598	153.160000
476.200256	153.900000
476.294006	154.000000
476.387695	154.080000
476.481384	153.820000
476.575104	153.940000
476.668793	153.340000
476.762512	153.220000
476.856201	153.440000
476.949890	153.180000
477.043610	152.580000
477.137299	152.580000
477.230988	153.000000
477.324707	152.580000
477.418396	153.260000
477.512146	153.880000
477.605804	154.080000
477.699524	154.080000
477.793213	153.840000
477.886932	153.340000
477.980591	152.960000
478.074341	152.860000
478.167999	152.240000
478.261749	152.620000
478.355408	153.020000
478.449127	153.500000
478.542816	154.680000
478.636536	155.580000
478.730225	155.780000
478.823944	155.880000
478.917633	155.560000
479.011322	154.920000
479.105042	154.860000
479.198730	155.000000
479.292450	154.700000
479.386139	155.200000
479.479828	155.140000
479.573547	155.500000
479.667267	155.200000
479.760925	155.360000
479.854675	155.080000
479.948334	155.040000
480.042084	153.920000
480.135742	154.080000
480.229462	153.380000
480.323151	153.280000
480.416870	152.660000
480.510529	153.020000
480.604279	152.600000
480.697937	153.300000
480.791656	152.700000
480.885345	152.620000
480.979065	152.560000
481.072754	152.800000
481.166473	153.160000
481.260132	153.640000
481.353882	153.720000
481.447540	153.700000
481.541260	153.900000
481.635010	153.080000
481.728668	152.880000
481.822388	152.940000
481.916077	152.960000
482.009796	152.620000
482.103485	153.180000
482.197205	153.360000
482.290863	153.780000
482.384613	153.480000
482.478271	153.260000
482.571991	153.020000
482.665680	152.860000
482.759399	153.300000
482.853058	154.080000
482.946808	154.340000
483.040466	154.080000
483.134216	154.220000
483.227875	153.400000
483.321594	153.340000
483.415283	153.300000
483.509003	153.500000
483.602661	153.340000
483.696411	153.800000
483.790070	153.780000
483.883789	153.660000
483.977478	154.080000
484.071198	154.280000
484.164917	153.840000
484.258606	153.460000
484.352325	153.780000
484.445984	153.700000
484.539734	153.720000
484.633392	153.540000
484.727142	153.960000
484.820801	153.520000
484.914520	153.360000
485.008209	153.460000
485.101929	153.820000
485.195587	153.380000
485.289337	153.600000
485.382996	153.520000
485.476715	153.420000
485.570404	154.000000
485.664124	154.220000
485.757782	154.700000
485.851532	154.180000
485.945190	154.060000
486.038910	153.860000
486.132599	153.940000
486.226318	153.440000
486.319977	153.900000
486.413727	154.680000
486.507446	154.160000
486.601105	153.700000
486.694855	153.600000
486.788513	153.480000
486.882233	153.340000
486.975922	153.220000
487.069641	153.180000
487.163300	152.740000
487.257050	153.920000
487.350708	153.200000
487.444427	153.160000
487.538116	153.300000
487.631836	153.580000
487.725494	152.820000
487.819214	153.080000
487.912903	153.240000
488.006622	153.660000
488.100281	154.200000
488.194031	154.180000
488.287689	154.700000
488.381409	155.400000
488.475098	154.900000
488.568817	154.880000
488.662476	154.280000
488.756226	153.380000
488.849945	152.460000
488.943604	152.600000
489.037354	152.580000
489.131012	152.860000
489.224731	153.000000
489.318390	152.900000
489.412140	152.860000
489.505798	152.640000
489.599518	152.360000
489.693207	152.800000
489.786926	152.820000
489.880585	152.840000
489.974335	153.140000
490.067993	154.320000
490.161713	154.260000
490.255371	155.160000
490.349121	155.360000
490.442780	154.980000
490.536499	153.820000
490.630188	153.800000
490.723907	152.980000
490.817566	153.240000
490.911285	153.420000
491.004974	153.700000
491.098694	153.440000
491.192413	154.360000
491.286102	153.780000
491.379822	153.500000
491.473480	153.360000
491.567200	153.560000
491.660889	152.860000
491.754608	153.040000
491.848267	153.220000
491.941986	153.320000
492.035675	153.080000
492.129395	153.500000
492.223053	153.560000
492.316772	153.860000
492.410461	153.860000
492.504181	154.060000
492.597839	153.480000
492.691559	153.520000
492.785248	153.520000
492.878967	153.800000
492.972626	153.520000
493.066345	153.860000
493.160034	153.380000
493.253754	153.180000
493.347412	152.460000
493.441132	152.780000
493.534882	153.300000
493.628540	153.780000
493.722260	154.180000
493.815918	154.900000
493.909668	155.140000
494.003326	154.980000
494.097046	154.700000
494.190704	154.220000
494.284454	153.980000
494.378113	154.020000
494.471832	153.600000
494.565491	153.540000
494.659210	153.360000
494.752899	153.480000
494.846619	153.100000
494.940277	153.260000
495.033997	153.280000
495.127686	153.440000
495.221405	153.340000
495.315063	153.280000
495.408783	153.260000
495.502441	153.140000
495.596191	153.260000
495.689850	152.960000
495.783569	153.800000
495.877228	153.900000
495.970947	153.940000
496.064697	153.820000
496.158356	154.820000
496.252075	154.080000
496.345734	153.700000
496.439453	154.580000
496.533142	154.780000
496.626862	154.580000
496.720520	154.860000
496.814240	155.260000
496.907898	154.740000
497.001617	155.000000
497.095306	154.400000
497.189026	154.420000
497.282684	154.320000
497.376404	154.700000
497.470062	154.060000
497.563782	154.360000
497.657471	153.860000
497.751190	153.840000
497.844849	153.620000
497.938568	153.840000
498.032227	153.900000
498.125946	153.940000
498.219635	153.740000
498.313354	154.120000
498.407074	153.740000
498.500732	153.980000
498.594452	154.540000
498.688110	154.320000
498.781830	153.380000
498.875519	153.580000
498.969238	152.780000
499.062897	152.420000
499.156616	153.200000
499.250275	153.400000
499.343994	153.300000
499.437653	153.640000
499.531372	153.720000
499.625061	154.120000
499.718781	154.700000
499.812439	155.220000
499.906158	155.160000
499.999817	155.200000
500.093536	154.340000
500.187195	153.780000
500.280914	153.540000
500.374573	153.780000
500.468323	153.260000
500.561981	153.500000
500.655701	153.540000
500.749420	153.420000
500.843079	153.300000
500.936798	153.880000
501.030457	154.380000
501.124176	154.720000
501.217834	154.820000
501.311554	154.720000
501.405212	154.520000
501.498962	153.560000
501.592621	153.260000
501.686340	153.600000
501.779999	153.720000
501.873718	153.840000
501.967377	154.180000
502.061096	154.760000
502.154755	154.060000
502.248474	154.160000
502.342133	154.280000
502.435852	154.100000
502.529510	154.180000
502.623230	155.060000
502.716888	154.580000
502.810608	154.420000
502.904266	154.880000
502.997986	154.280000
503.091705	153.700000
503.185364	153.720000
503.279083	153.980000
503.372772	154.000000
503.466492	153.660000
503.560150	153.560000
503.653870	154.160000
503.747528	153.940000
503.841248	153.560000
503.934906	154.000000
504.028625	153.900000
504.122284	153.660000
504.216003	154.340000
504.309662	154.300000
504.403381	154.500000
504.497040	154.520000
504.590759	154.560000
504.684418	154.200000
504.778137	154.840000
504.871796	154.900000
504.965515	154.720000
505.059174	154.780000
505.152893	154.140000
505.246521	153.240000
505.340240	152.920000
505.433899	153.200000
505.527618	153.540000
505.621338	154.120000
505.714996	154.000000
505.808716	153.860000
505.902374	154.460000
505.996094	154.260000
506.089752	153.960000
506.183472	154.500000
506.277130	154.740000
506.370850	154.400000
506.464508	153.920000
506.558228	153.900000
506.651886	153.680000
506.745605	153.600000
506.839264	153.560000
506.932983	153.620000
507.026611	153.620000
507.120331	153.820000
507.213989	153.180000
507.307709	153.280000
507.401367	153.780000
507.495087	154.820000
507.588745	154.720000
507.682465	155.900000
507.776123	155.820000
507.869843	155.580000
507.963531	154.880000
508.057190	155.360000
508.150909	154.460000
508.244568	154.540000
508.338287	154.080000
508.431946	153.740000
508.525665	153.460000
508.619324	153.640000
508.713013	153.740000
508.806671	154.420000
508.900391	155.280000
508.994049	155.320000
509.087769	155.020000
509.181427	155.020000
509.275146	154.260000
509.368774	153.180000
509.462494	153.140000
509.556152	153.340000
509.649872	153.520000
509.743530	153.920000
509.837250	154.340000
509.930878	154.340000
510.024597	154.260000
510.118256	153.700000
510.211975	153.740000
510.305695	153.280000
510.399353	153.120000
510.493042	153.860000
510.586700	154.320000
510.680420	155.160000
510.774078	155.280000
510.867798	155.640000
510.961426	154.700000
511.055145	154.540000
511.148804	153.640000
511.242523	154.280000
511.336151	154.120000
511.429871	154.920000
511.523529	154.760000
511.617249	154.540000
511.710876	153.880000
511.804596	153.380000
511.898254	152.980000
511.991974	153.460000
512.085632	153.560000
512.179321	153.860000
512.272949	154.600000
512.366699	155.080000
512.460327	154.560000
512.554077	155.400000
512.647766	155.180000
512.741394	154.960000
512.835144	155.020000
512.928772	154.900000
513.022461	154.160000
513.116150	154.100000
513.209839	154.700000
513.303467	154.180000
513.397217	154.300000
513.490845	154.240000
513.584595	154.040000
513.678223	152.860000
513.771912	152.300000
513.865601	152.200000
513.959290	151.960000
514.052917	152.340000
514.146667	153.540000
514.240295	154.100000
514.333984	154.360000
514.427673	154.520000
514.521362	154.880000
514.614990	153.760000
514.708740	153.740000
514.802368	154.020000
514.896057	154.380000
514.989746	154.680000
515.083435	154.720000
515.177124	155.060000
515.270752	154.440000
515.364502	154.320000
515.458130	153.880000
515.551819	153.920000
515.645508	153.500000
515.739197	153.760000
515.832825	153.920000
515.926575	153.680000
516.020203	154.020000
516.113892	154.680000
516.207520	154.420000
516.301270	154.080000
516.394897	154.360000
516.488586	154.780000
516.582275	154.600000
516.675964	153.900000
516.769592	153.720000
516.863281	154.320000
516.956970	154.000000
517.050659	153.880000
517.144287	154.240000
517.238037	154.760000
517.331665	153.540000
517.425354	153.100000
517.519043	152.860000
517.612732	153.400000
517.706421	153.060000
517.800049	153.340000
517.893738	153.280000
517.987427	153.520000
518.081116	153.200000
518.174744	153.040000
518.268433	153.400000
518.362122	153.980000
518.455811	153.500000
518.549438	154.320000
518.643127	155.700000
518.736816	155.140000
518.830505	154.360000
518.924133	154.640000
519.017822	154.280000
519.111511	153.180000
519.205200	153.900000
519.298828	154.320000
519.392517	153.940000
519.486206	154.080000
519.579895	153.980000
519.673523	153.420000
519.767212	153.580000
519.860901	154.200000
519.954590	154.020000
520.048279	153.960000
520.141907	154.180000
520.235596	154.800000
520.329224	154.820000
520.422974	154.740000
520.516602	154.780000
520.610291	154.180000
520.703918	153.840000
520.797607	153.300000
520.891296	153.400000
520.984985	153.660000
521.078613	154.820000
521.172302	154.000000
521.265930	154.940000
521.359680	155.500000
521.453308	155.220000
521.546997	154.480000
521.640625	154.940000
521.734314	154.380000
521.827942	153.960000
521.921692	154.100000
522.015320	154.440000
522.109009	154.200000
522.202698	154.040000
522.296326	153.680000
522.390015	153.940000
522.483704	153.620000
522.577393	153.460000
522.671021	153.240000
522.764709	153.100000
522.858337	153.300000
522.952026	153.400000
523.045654	154.000000
523.139404	154.680000
523.233032	155.040000
523.326721	154.420000
523.420349	154.360000
523.514038	153.820000
523.607666	153.760000
523.701355	153.400000
523.795044	153.460000
523.888733	153.820000
523.982361	154.220000
524.076050	153.960000
524.169678	154.480000
524.263367	154.100000
524.356995	153.620000
524.450684	153.540000
524.544373	153.120000
524.638062	152.740000
524.731750	153.300000
524.825378	153.440000
524.919067	153.260000
525.012695	153.700000
525.106384	153.380000
525.200012	153.300000
525.293701	153.220000
525.387329	153.520000
525.481018	153.620000
525.574646	154.380000
525.668396	154.080000
525.762024	154.300000
525.855713	154.340000
525.949341	153.860000
526.043030	153.620000
526.136658	153.920000
526.230347	153.440000
526.323975	153.080000
526.417664	153.020000
526.511292	153.060000
526.604980	153.100000
526.698608	153.080000
526.792297	153.140000
526.885925	153.640000
526.979614	153.900000
527.073303	153.560000
527.166931	153.840000
527.260620	153.940000
527.354309	154.080000
527.447998	153.740000
527.541626	153.800000
527.635315	154.100000
527.728943	154.740000
527.822632	154.680000
527.916260	154.740000
528.009949	154.940000
528.103577	154.200000
528.197266	153.260000
528.290894	153.520000
528.384583	153.160000
528.478210	153.100000
528.571899	153.800000
528.665527	154.200000
528.759216	153.720000
528.852844	154.280000
528.946533	154.180000
529.040161	153.780000
529.133850	153.840000
529.227478	154.020000
529.321167	154.240000
529.414856	154.720000
529.508484	155.380000
529.602173	155.120000
529.695801	154.960000
529.789490	154.200000
529.883057	153.660000
529.976746	153.520000
530.070374	153.940000
530.164062	153.920000
530.257690	154.620000
530.351379	154.880000
530.445007	154.420000
530.538696	153.560000
530.632324	153.980000
530.726013	153.640000
530.819641	153.600000
530.913330	153.860000
531.006958	154.160000
531.100647	153.680000
531.194275	153.400000
531.287964	153.360000
531.381592	153.040000
531.475220	153.340000
531.568848	153.200000
531.662537	153.260000
531.756226	153.560000
531.849854	153.620000
531.943542	153.560000
532.037170	153.340000
532.130859	153.940000
532.224487	153.560000
532.318176	153.420000
532.411804	153.720000
532.505432	154.180000
532.599060	153.440000
532.692749	153.320000
532.786377	153.840000
532.880066	153.220000
532.973694	152.980000
533.067383	153.140000
533.161011	153.100000
533.254639	152.920000
533.348267	152.840000
533.441956	152.820000
533.535583	152.660000
533.629272	153.100000
533.722900	152.560000
533.816589	152.760000
533.910156	153.580000
534.003845	153.240000
534.097534	153.300000
534.191162	154.160000
534.284851	154.540000
534.378479	153.940000
534.472107	153.960000
534.565735	153.600000
534.659424	153.220000
534.753052	153.340000
534.846741	152.960000
534.940369	154.300000
535.033997	154.280000
535.127625	154.580000
535.221313	154.800000
535.314941	154.900000
535.408630	153.700000
535.502197	154.280000
535.595886	154.000000
535.689514	153.400000
535.783203	154.040000
535.876831	154.460000
535.970459	153.880000
536.064087	153.400000
536.157776	153.300000
536.251404	153.040000
536.345093	153.060000
536.438721	153.220000
536.532349	153.780000
536.626038	153.760000
536.719666	154.060000
536.813293	153.660000
536.906921	153.820000
537.000610	153.960000
537.094238	153.920000
537.187866	153.900000
537.281494	154.020000
537.375183	153.960000
537.468811	153.660000
537.562439	154.080000
537.656067	153.580000
537.749756	153.700000
537.843384	154.200000
537.937012	154.460000
538.030640	153.920000
538.124329	153.720000
538.217896	154.220000
538.311584	154.040000
538.405212	154.040000
538.498901	154.520000
538.592468	155.700000
538.686157	155.100000
538.779785	154.240000
538.873413	153.920000
538.967102	153.660000
539.060730	152.660000
539.154358	152.960000
539.247986	153.620000
539.341675	154.020000
539.435242	153.860000
539.528931	154.260000
539.622559	154.000000
539.716187	154.680000
539.809814	154.400000
539.903503	154.420000
539.997070	153.700000
540.090759	153.660000
540.184387	152.720000
540.278015	153.040000
540.371643	153.120000
540.465332	153.780000
540.558899	153.660000
540.652588	153.920000
540.746216	153.580000
540.839844	154.200000
540.933472	154.100000
541.027100	154.100000
541.120728	154.380000
541.214417	154.460000
541.308044	154.400000
541.401672	154.380000
541.495300	154.200000
541.588928	153.680000
541.682617	153.320000
541.776184	152.920000
541.869873	153.000000
541.963440	153.360000
542.057129	153.240000
542.150757	153.620000
542.244385	153.220000
542.338013	152.740000
542.431641	152.560000
542.525269	152.560000
542.618958	152.960000
542.712524	153.400000
542.806213	153.480000
542.899780	153.940000
542.993469	153.980000
543.087036	153.500000
543.180725	153.120000
543.274292	153.380000
543.367981	153.260000
543.461548	153.580000
543.555237	153.440000
543.648926	153.780000
543.742493	154.620000
543.836182	154.560000
543.929749	154.200000
544.023437	154.260000
544.117004	154.400000
544.210693	153.920000
544.304260	153.920000
544.397949	154.020000
544.491516	154.440000
544.585205	154.180000
544.678772	153.640000
544.772461	154.080000
544.866028	154.060000
544.959717	153.920000
545.053284	153.740000
545.146973	154.360000
545.240540	154.240000
545.334229	154.920000
545.427795	154.900000
545.521423	155.260000
545.615051	154.940000
545.708679	155.320000
545.802307	154.720000
545.895935	155.100000
545.989624	155.800000
546.083191	155.520000
546.176880	155.160000
546.270447	154.660000
546.364136	154.900000
546.457703	154.380000
546.551331	154.660000
546.644958	154.800000
546.738586	155.700000
546.832214	155.220000
546.925842	154.940000
547.019409	155.140000
547.113098	154.600000
547.206665	154.000000
547.300354	153.760000
547.393921	154.060000
547.487549	154.020000
547.581177	153.840000
547.674805	154.000000
547.768433	153.420000
547.862061	153.220000
547.955627	152.760000
548.049316	153.380000
548.142883	153.480000
548.236572	154.300000
548.330139	154.440000
548.423767	154.560000
548.517456	154.180000
548.611023	154.420000
548.704651	153.740000
548.798279	153.720000
548.891907	154.240000
548.985474	154.560000
549.079163	154.700000
549.172729	154.520000
549.266357	153.640000
549.359985	153.380000
549.453613	152.700000
549.547180	152.180000
549.640869	152.980000
549.734436	153.220000
549.828064	153.420000
549.921631	153.640000
550.015320	153.320000
550.108887	153.540000
550.202515	153.920000
550.296143	153.380000
550.389771	153.720000
550.483337	153.920000
550.576965	153.320000
550.670593	153.640000
550.764221	153.720000
550.857849	153.400000
550.951477	153.160000
551.045105	153.100000
551.138672	153.200000
551.232300	152.820000
551.325928	153.200000
551.419556	153.900000
551.513123	154.120000
551.606750	153.720000
551.700378	154.180000
551.794006	153.920000
551.887573	153.780000
551.981201	154.180000
552.074768	154.040000
552.168457	153.760000
552.262024	154.580000
552.355652	154.300000
552.449219	154.680000
552.542847	154.900000
552.636475	154.820000
552.730103	153.900000
552.823669	154.000000
552.917297	153.220000
553.010864	153.300000
553.104553	153.820000
553.198181	153.700000
553.291748	154.100000
553.385376	154.380000
553.478943	154.000000
553.572571	153.760000
553.666199	154.300000
553.759827	153.660000
553.853394	153.000000
553.947021	153.340000
554.040588	153.540000
554.134216	153.440000
554.227783	154.400000
554.321411	155.240000
554.415039	154.520000
554.508667	154.380000
554.602234	154.480000
554.695862	153.780000
554.789429	153.380000
554.883057	154.040000
554.976624	153.940000
555.070251	153.740000
555.163818	153.480000
555.257507	153.780000
555.351074	153.780000
555.444702	155.080000
555.538330	154.760000
555.631897	155.360000
555.725525	154.980000
555.819092	154.960000
555.912720	153.420000
556.006287	154.320000
556.099915	153.920000
556.193481	153.980000
556.287109	154.080000
556.380676	154.240000
556.474304	153.700000
556.567871	154.080000
556.661499	153.620000
556.755066	153.640000
556.848694	153.560000
556.942261	153.300000
557.035889	153.360000
557.129517	153.880000
557.223145	154.040000
557.316711	154.240000
557.410339	154.480000
557.503906	154.020000
557.597473	154.260000
557.691040	153.960000
557.784668	154.160000
557.878296	154.020000
557.971863	154.560000
558.065491	154.480000
558.159058	154.260000
558.252686	155.060000
558.346252	155.960000
558.439880	155.260000
558.533447	154.860000
558.627075	154.800000
558.720642	154.020000
558.814270	153.380000
558.907837	153.440000
559.001465	153.240000
559.095032	154.000000
559.188660	154.060000
559.282227	153.400000
559.375854	154.240000
559.469360	154.200000
559.562988	154.180000
559.656555	154.000000
559.750183	154.780000
559.843750	154.320000
559.937378	154.740000
560.030945	154.340000
560.124573	0.000000
560.218140	0.000000
560.311707	0.000000
560.405334	0.000000
560.498901	0.000000
560.592529	0.000000
560.686096	0.000000
560.779724	0.000000
560.873291	0.000000
560.966858	0.000000
561.060425	0.000000
561.154053	0.000000
561.247620	0.000000
561.341248	0.000000
561.434814	0.000000
561.528381	0.000000
561.621948	0.000000
561.715576	0.000000
561.809143	0.000000
561.902771	0.000000
561.996277	0.000000
562.089905	0.000000
562.183472	0.000000
562.277100	0.000000
