Model Number: SPM-002-B   
Serial Number: 70087108
Firmware Version: 004.15.4
Exposure Time: 100000.000000us
Data Taken on: 15-01-2021 16:34:59.114
Wavelength	Amplitude
221.570786	0.000000
221.663406	0.000000
221.756027	0.000000
221.848648	0.000000
221.941269	0.000000
222.033905	0.000000
222.126526	0.000000
222.219162	0.000000
222.311798	0.000000
222.404419	0.000000
222.497055	0.000000
222.589676	0.000000
222.682312	0.000000
222.774933	0.000000
222.867569	0.000000
222.960205	0.000000
223.052841	0.000000
223.145462	0.000000
223.238098	0.000000
223.330734	0.000000
223.423386	0.000000
223.516022	0.000000
223.608658	0.000000
223.701309	0.000000
223.793945	0.000000
223.886581	0.000000
223.979218	0.000000
224.071869	0.000000
224.164505	0.000000
224.257156	0.000000
224.349792	0.000000
224.442444	0.000000
224.535095	0.000000
224.627747	0.000000
224.720398	0.000000
224.813034	0.000000
224.905685	0.000000
224.998337	152.520000
225.090988	152.180000
225.183640	152.540000
225.276291	152.180000
225.368942	152.440000
225.461594	152.760000
225.554245	153.200000
225.646912	153.060000
225.739578	153.720000
225.832230	154.520000
225.924896	153.960000
226.017548	154.020000
226.110199	154.580000
226.202866	154.060000
226.295532	153.680000
226.388184	153.460000
226.480850	152.880000
226.573517	152.100000
226.666168	152.160000
226.758835	152.280000
226.851501	152.960000
226.944183	153.460000
227.036850	153.560000
227.129517	153.400000
227.222183	153.680000
227.314850	153.620000
227.407516	153.800000
227.500198	154.460000
227.592865	154.380000
227.685532	153.620000
227.778214	153.460000
227.870880	153.420000
227.963562	153.480000
228.056229	153.900000
228.148926	154.100000
228.241592	154.600000
228.334274	154.460000
228.426956	154.240000
228.519638	154.320000
228.612305	153.900000
228.704987	153.700000
228.797668	153.600000
228.890350	153.520000
228.983032	152.960000
229.075714	153.940000
229.168396	153.740000
229.261108	153.500000
229.353790	153.340000
229.446472	153.900000
229.539169	153.400000
229.631851	152.820000
229.724533	153.280000
229.817230	153.640000
229.909912	154.200000
230.002609	154.300000
230.095306	154.640000
230.187988	154.560000
230.280685	154.260000
230.373383	153.400000
230.466095	153.360000
230.558792	153.700000
230.651474	153.660000
230.744171	153.560000
230.836868	153.340000
230.929581	153.440000
231.022278	153.480000
231.114975	153.480000
231.207672	153.260000
231.300369	153.680000
231.393082	153.880000
231.485779	153.380000
231.578506	153.060000
231.671204	153.740000
231.763916	153.560000
231.856613	153.280000
231.949326	153.820000
232.042023	154.020000
232.134735	153.660000
232.227448	153.620000
232.320160	153.840000
232.412872	153.500000
232.505585	154.640000
232.598297	154.840000
232.691010	154.700000
232.783722	154.360000
232.876450	155.220000
232.969162	153.960000
233.061874	153.620000
233.154587	153.300000
233.247314	153.760000
233.340027	153.160000
233.432739	153.940000
233.525467	153.760000
233.618179	154.460000
233.710907	153.760000
233.803635	154.040000
233.896347	153.480000
233.989090	154.180000
234.081818	153.960000
234.174545	154.120000
234.267258	153.460000
234.359985	153.680000
234.452713	153.340000
234.545441	153.320000
234.638168	153.460000
234.730896	154.320000
234.823639	154.060000
234.916367	154.520000
235.009094	154.820000
235.101822	154.900000
235.194580	154.640000
235.287308	154.900000
235.380051	154.140000
235.472778	153.860000
235.565521	153.920000
235.658249	153.280000
235.750992	152.980000
235.843719	153.000000
235.936462	153.320000
236.029205	153.060000
236.121948	152.880000
236.214691	153.200000
236.307449	154.200000
236.400192	153.840000
236.492935	153.680000
236.585678	154.020000
236.678421	153.900000
236.771164	153.120000
236.863907	153.580000
236.956665	153.940000
237.049408	155.740000
237.142151	155.500000
237.234909	156.460000
237.327652	156.420000
237.420410	156.280000
237.513153	155.100000
237.605927	155.080000
237.698669	154.160000
237.791428	153.260000
237.884186	153.380000
237.976944	152.800000
238.069702	153.240000
238.162445	152.780000
238.255203	153.080000
238.347961	153.540000
238.440720	153.780000
238.533478	153.340000
238.626266	153.380000
238.719025	153.820000
238.811783	153.440000
238.904541	153.300000
238.997314	153.280000
239.090073	153.380000
239.182831	153.540000
239.275604	154.300000
239.368362	154.120000
239.461136	154.440000
239.553909	154.540000
239.646667	154.140000
239.739441	153.820000
239.832214	154.400000
239.925003	154.200000
240.017761	154.980000
240.110535	155.580000
240.203308	154.560000
240.296082	154.340000
240.388855	154.360000
240.481628	153.900000
240.574417	153.780000
240.667191	154.300000
240.759964	153.860000
240.852737	154.020000
240.945526	153.740000
241.038315	153.180000
241.131088	153.580000
241.223877	154.060000
241.316650	153.500000
241.409439	154.140000
241.502228	154.220000
241.595001	154.560000
241.687790	154.000000
241.780579	154.220000
241.873367	154.220000
241.966141	154.660000
242.058929	153.780000
242.151718	154.140000
242.244507	154.720000
242.337311	153.920000
242.430099	154.160000
242.522903	154.440000
242.615692	153.980000
242.708481	153.620000
242.801270	154.060000
242.894073	153.520000
242.986862	153.520000
243.079651	154.680000
243.172455	154.600000
243.265244	154.500000
243.358063	154.080000
243.450867	154.320000
243.543655	153.760000
243.636459	153.480000
243.729263	153.780000
243.822067	154.080000
243.914856	154.080000
244.007660	153.920000
244.100464	154.440000
244.193268	154.180000
244.286072	154.080000
244.378876	153.400000
244.471680	153.280000
244.564499	153.460000
244.657318	153.880000
244.750122	154.380000
244.842926	154.400000
244.935745	154.580000
245.028549	154.160000
245.121368	153.880000
245.214172	153.560000
245.306992	154.420000
245.399796	154.200000
245.492615	154.400000
245.585434	154.080000
245.678253	154.220000
245.771072	153.640000
245.863892	154.160000
245.956711	153.920000
246.049530	153.720000
246.142349	153.240000
246.235168	153.300000
246.327988	153.420000
246.420807	153.400000
246.513626	153.720000
246.606445	153.840000
246.699280	153.920000
246.792099	153.580000
246.884918	153.440000
246.977753	153.260000
247.070587	153.200000
247.163422	153.000000
247.256241	153.040000
247.349075	153.420000
247.441895	153.320000
247.534729	153.380000
247.627563	153.320000
247.720383	153.980000
247.813217	153.680000
247.906052	153.660000
247.998886	153.660000
248.091736	153.820000
248.184570	153.100000
248.277405	153.260000
248.370239	154.400000
248.463074	155.720000
248.555908	155.760000
248.648743	155.860000
248.741592	156.040000
248.834427	155.000000
248.927261	153.640000
249.020111	154.000000
249.112946	154.340000
249.205795	153.780000
249.298630	153.900000
249.391495	154.060000
249.484344	153.740000
249.577179	153.500000
249.670029	153.760000
249.762878	154.340000
249.855728	154.480000
249.948563	154.360000
250.041412	153.700000
250.134262	154.000000
250.227112	154.020000
250.319962	154.100000
250.412827	154.040000
250.505692	153.980000
250.598541	154.320000
250.691391	153.760000
250.784241	153.780000
250.877106	153.880000
250.969955	153.840000
251.062805	153.900000
251.155670	154.600000
251.248520	154.000000
251.341385	154.320000
251.434235	154.800000
251.527100	153.960000
251.619965	153.460000
251.712814	154.440000
251.805695	154.200000
251.898560	154.200000
251.991425	154.820000
252.084290	154.880000
252.177155	154.040000
252.270020	154.000000
252.362885	154.000000
252.455750	154.040000
252.548615	153.880000
252.641479	154.100000
252.734360	153.820000
252.827240	153.600000
252.920105	153.620000
253.012970	153.440000
253.105850	153.320000
253.198715	153.220000
253.291595	153.120000
253.384460	152.580000
253.477341	152.640000
253.570221	152.660000
253.663086	152.580000
253.755966	153.480000
253.848846	153.600000
253.941727	154.040000
254.034592	153.920000
254.127472	153.480000
254.220367	153.200000
254.313248	153.240000
254.406128	152.300000
254.499008	152.920000
254.591904	154.180000
254.684784	154.320000
254.777664	154.380000
254.870544	154.380000
254.963440	154.080000
255.056335	153.740000
255.149216	153.260000
255.242111	153.760000
255.334991	154.740000
255.427887	154.800000
255.520767	154.720000
255.613663	155.000000
255.706558	154.060000
255.799438	153.280000
255.892334	152.720000
255.985229	152.860000
256.078125	152.600000
256.171021	153.180000
256.263916	153.980000
256.356812	154.500000
256.449707	154.580000
256.542603	154.560000
256.635498	154.900000
256.728394	154.280000
256.821289	153.980000
256.914215	154.220000
257.007080	154.400000
257.100006	154.420000
257.192932	155.180000
257.285828	155.700000
257.378723	155.120000
257.471619	155.080000
257.564545	154.280000
257.657440	154.220000
257.750336	154.480000
257.843262	154.380000
257.936157	155.540000
258.029053	156.300000
258.121979	156.140000
258.214874	155.520000
258.307800	155.440000
258.400696	154.120000
258.493622	153.520000
258.586517	152.680000
258.679443	153.260000
258.772339	153.040000
258.865265	152.980000
258.958160	152.720000
259.051086	153.720000
259.144012	153.060000
259.236938	154.200000
259.329834	154.340000
259.422791	154.120000
259.515717	153.240000
259.608612	153.340000
259.701538	153.060000
259.794464	153.020000
259.887390	153.300000
259.980316	153.340000
260.073212	153.220000
260.166138	152.140000
260.259064	152.220000
260.351990	152.960000
260.444916	153.240000
260.537842	153.580000
260.630768	154.720000
260.723694	154.620000
260.816620	154.180000
260.909546	154.100000
261.002472	153.600000
261.095398	153.040000
261.188354	153.020000
261.281281	152.760000
261.374207	152.800000
261.467133	153.640000
261.560089	153.700000
261.653015	153.360000
261.745972	154.140000
261.838867	154.500000
261.931824	154.400000
262.024780	154.340000
262.117706	154.820000
262.210663	154.440000
262.303589	154.400000
262.396515	154.340000
262.489471	154.960000
262.582397	155.020000
262.675354	154.400000
262.768280	154.180000
262.861237	154.260000
262.954163	153.860000
263.047119	153.860000
263.140045	153.940000
263.233002	153.740000
263.325958	153.360000
263.418884	153.140000
263.511841	152.940000
263.604797	152.880000
263.697723	153.040000
263.790680	152.880000
263.883636	153.280000
263.976593	153.260000
264.069550	153.660000
264.162476	153.540000
264.255463	153.760000
264.348419	153.460000
264.441376	153.620000
264.534332	153.040000
264.627289	153.220000
264.720245	153.500000
264.813202	153.160000
264.906158	153.300000
264.999115	153.960000
265.092072	153.860000
265.185028	154.260000
265.277985	154.560000
265.370941	154.640000
265.463898	154.320000
265.556854	154.120000
265.649811	153.260000
265.742798	153.260000
265.835754	152.840000
265.928711	153.800000
266.021667	153.880000
266.114655	154.180000
266.207611	154.500000
266.300568	154.120000
266.393585	153.300000
266.486511	153.360000
266.579498	152.760000
266.672485	152.460000
266.765442	152.580000
266.858429	153.060000
266.951385	152.780000
267.044342	153.280000
267.137329	153.280000
267.230316	153.900000
267.323273	153.340000
267.416260	154.260000
267.509216	153.740000
267.602203	153.680000
267.695160	153.800000
267.788147	153.820000
267.881134	153.000000
267.974091	153.440000
268.067078	153.320000
268.160065	153.220000
268.253052	152.960000
268.346008	153.100000
268.438995	152.680000
268.531982	152.760000
268.624969	151.960000
268.717987	152.840000
268.810944	152.980000
268.903961	153.680000
268.996948	153.360000
269.089905	154.420000
269.182892	153.880000
269.275879	154.200000
269.368866	153.320000
269.461853	153.520000
269.554871	152.980000
269.647858	153.060000
269.740845	153.100000
269.833832	153.860000
269.926819	154.020000
270.019806	154.260000
270.112793	154.180000
270.205811	154.120000
270.298798	153.620000
270.391785	154.180000
270.484772	153.520000
270.577789	153.620000
270.670776	153.160000
270.763763	153.200000
270.856750	152.700000
270.949768	152.840000
271.042786	152.580000
271.135773	152.760000
271.228790	153.400000
271.321808	152.920000
271.414795	152.800000
271.507782	152.720000
271.600800	152.340000
271.693817	152.200000
271.786804	153.140000
271.879822	153.680000
271.972809	153.520000
272.065826	154.140000
272.158844	153.640000
272.251831	153.740000
272.344849	153.680000
272.437866	153.920000
272.530853	153.780000
272.623871	154.100000
272.716888	153.080000
272.809906	153.180000
272.902893	153.260000
272.995911	152.800000
273.088928	152.740000
273.181946	153.140000
273.274963	152.700000
273.367981	152.580000
273.460999	152.880000
273.554047	153.180000
273.647003	153.820000
273.740051	154.340000
273.833069	154.680000
273.926086	154.840000
274.019135	154.560000
274.112152	154.140000
274.205170	154.080000
274.298187	154.380000
274.391205	153.840000
274.484222	153.700000
274.577240	153.420000
274.670258	153.120000
274.763306	152.480000
274.856323	153.240000
274.949341	153.380000
275.042358	154.000000
275.135406	154.080000
275.228424	154.600000
275.321442	154.100000
275.414490	153.920000
275.507507	153.940000
275.600525	154.140000
275.693573	153.740000
275.786591	153.440000
275.879669	153.480000
275.972656	153.040000
276.065735	152.900000
276.158752	153.300000
276.251801	154.420000
276.344818	154.700000
276.437866	154.840000
276.530884	154.580000
276.623932	153.760000
276.716980	153.180000
276.809998	153.160000
276.903046	153.020000
276.996094	153.840000
277.089111	154.740000
277.182159	155.340000
277.275208	154.980000
277.368256	155.460000
277.461304	154.980000
277.554321	154.300000
277.647369	154.080000
277.740417	154.300000
277.833466	153.540000
277.926514	153.080000
278.019562	153.840000
278.112610	153.020000
278.205688	153.080000
278.298706	153.780000
278.391785	153.860000
278.484833	153.140000
278.577881	153.460000
278.670929	153.840000
278.763977	153.520000
278.857025	154.020000
278.950073	154.260000
279.043121	154.260000
279.136169	154.000000
279.229248	153.700000
279.322296	153.420000
279.415344	153.200000
279.508392	153.040000
279.601440	152.740000
279.694519	152.460000
279.787567	152.360000
279.880615	152.140000
279.973694	152.060000
280.066742	152.260000
280.159790	152.820000
280.252869	152.340000
280.345917	152.600000
280.438995	152.760000
280.532074	152.880000
280.625122	152.940000
280.718201	154.080000
280.811279	153.980000
280.904327	153.700000
280.997406	153.660000
281.090454	153.780000
281.183533	153.220000
281.276581	153.420000
281.369659	153.420000
281.462738	153.480000
281.555786	153.560000
281.648865	153.660000
281.741943	153.600000
281.835022	154.120000
281.928070	153.740000
282.021149	153.260000
282.114227	153.200000
282.207306	153.300000
282.300385	153.600000
282.393433	154.120000
282.486511	154.360000
282.579590	154.880000
282.672668	155.060000
282.765747	154.460000
282.858856	153.700000
282.951904	153.880000
283.045013	153.620000
283.138062	153.740000
283.231171	154.240000
283.324249	154.960000
283.417328	154.620000
283.510406	154.340000
283.603485	154.220000
283.696564	153.620000
283.789642	153.580000
283.882751	153.660000
283.975830	154.360000
284.068909	153.920000
284.161987	154.600000
284.255066	153.960000
284.348175	154.280000
284.441254	153.960000
284.534332	154.520000
284.627441	154.380000
284.720520	154.200000
284.813599	154.120000
284.906708	154.060000
284.999786	153.260000
285.092896	152.840000
285.185974	153.980000
285.279053	153.440000
285.372192	153.100000
285.465240	154.080000
285.558380	154.300000
285.651459	153.740000
285.744568	154.880000
285.837677	154.940000
285.930756	154.580000
286.023865	154.420000
286.116943	154.060000
286.210052	153.500000
286.303162	153.520000
286.396240	153.820000
286.489349	153.640000
286.582458	154.080000
286.675568	153.620000
286.768646	153.660000
286.861755	153.640000
286.954865	154.260000
287.047974	153.500000
287.141083	153.720000
287.234161	153.480000
287.327271	153.160000
287.420380	153.480000
287.513519	153.840000
287.606598	153.960000
287.699738	154.360000
287.792816	154.260000
287.885956	153.740000
287.979034	153.760000
288.072174	154.020000
288.165283	153.740000
288.258392	154.000000
288.351501	153.440000
288.444611	153.760000
288.537720	153.980000
288.630859	153.760000
288.723969	153.840000
288.817078	154.680000
288.910187	154.420000
289.003296	153.600000
289.096436	153.640000
289.189545	153.240000
289.282654	152.380000
289.375763	153.020000
289.468903	153.540000
289.562012	154.040000
289.655121	154.460000
289.748260	155.080000
289.841400	155.220000
289.934509	154.820000
290.027649	154.840000
290.120728	154.220000
290.213898	154.400000
290.306976	153.880000
290.400146	154.140000
290.493256	153.740000
290.586395	154.040000
290.679535	153.880000
290.772644	153.820000
290.865784	153.040000
290.958893	153.000000
291.052032	152.900000
291.145172	152.800000
291.238281	152.300000
291.331421	152.860000
291.424561	153.320000
291.517670	153.300000
291.610809	153.500000
291.703949	153.480000
291.797089	153.540000
291.890228	152.920000
291.983337	152.780000
292.076477	152.420000
292.169617	153.020000
292.262756	152.800000
292.355927	152.860000
292.449036	152.980000
292.542206	153.180000
292.635315	153.160000
292.728485	153.620000
292.821625	153.400000
292.914764	154.620000
293.007904	154.780000
293.101044	154.880000
293.194183	154.420000
293.287323	154.600000
293.380463	153.340000
293.473602	153.040000
293.566742	153.120000
293.659882	153.700000
293.753021	154.140000
293.846191	154.580000
293.939331	154.200000
294.032471	153.920000
294.125610	153.720000
294.218781	154.000000
294.311920	153.960000
294.405060	154.460000
294.498230	154.300000
294.591370	154.300000
294.684540	153.480000
294.777679	153.080000
294.870850	153.020000
294.963959	153.160000
295.057159	152.860000
295.150299	153.220000
295.243469	153.080000
295.336609	152.740000
295.429779	152.800000
295.522919	153.560000
295.616089	153.500000
295.709229	154.280000
295.802399	154.340000
295.895569	153.900000
295.988708	153.480000
296.081879	153.740000
296.175018	153.040000
296.268188	152.960000
296.361359	153.720000
296.454529	153.920000
296.547668	153.560000
296.640839	154.120000
296.734009	154.160000
296.827179	154.180000
296.920319	154.320000
297.013519	154.120000
297.106659	154.180000
297.199860	154.120000
297.292999	153.920000
297.386200	153.280000
297.479309	153.800000
297.572510	153.560000
297.665680	153.320000
297.758850	153.060000
297.852020	153.100000
297.945190	152.480000
298.038361	152.080000
298.131531	153.040000
298.224701	152.900000
298.317871	152.980000
298.411072	152.760000
298.504242	152.800000
298.597412	152.320000
298.690582	152.640000
298.783752	152.480000
298.876923	153.500000
298.970093	153.700000
299.063293	154.140000
299.156464	154.500000
299.249634	154.780000
299.342834	154.840000
299.436005	155.180000
299.529205	154.640000
299.622345	154.520000
299.715576	153.820000
299.808716	153.080000
299.901917	152.820000
299.995117	153.240000
300.088287	153.340000
300.181488	153.340000
300.274658	153.380000
300.367828	153.580000
300.461029	153.460000
300.554199	153.720000
300.647400	153.540000
300.740601	153.820000
300.833771	153.580000
300.926971	153.780000
301.020142	153.020000
301.113342	153.740000
301.206512	153.880000
301.299713	154.280000
301.392914	153.960000
301.486084	154.460000
301.579285	154.180000
301.672516	154.660000
301.765686	154.100000
301.858887	153.900000
301.952057	153.700000
302.045288	153.800000
302.138458	153.340000
302.231659	153.220000
302.324860	153.360000
302.418060	152.940000
302.511261	152.840000
302.604462	153.220000
302.697662	153.260000
302.790863	153.300000
302.884064	153.200000
302.977264	153.120000
303.070465	152.620000
303.163666	153.760000
303.256866	153.820000
303.350067	153.840000
303.443268	154.040000
303.536469	154.220000
303.629669	153.040000
303.722870	153.240000
303.816071	152.960000
303.909271	153.180000
304.002472	152.400000
304.095673	152.200000
304.188934	151.640000
304.282104	152.720000
304.375336	152.520000
304.468506	152.940000
304.561768	152.980000
304.654968	153.380000
304.748169	153.040000
304.841370	152.660000
304.934601	152.880000
305.027802	152.980000
305.121002	152.640000
305.214233	152.520000
305.307434	152.820000
305.400665	153.580000
305.493866	153.440000
305.587097	154.080000
305.680298	153.640000
305.773499	154.160000
305.866730	153.380000
305.959930	154.220000
306.053162	154.040000
306.146393	154.280000
306.239594	153.480000
306.332825	153.440000
306.426025	153.560000
306.519287	153.040000
306.612488	153.160000
306.705719	153.340000
306.798920	153.640000
306.892181	152.680000
306.985352	152.640000
307.078613	152.080000
307.171844	152.480000
307.265045	152.240000
307.358276	152.260000
307.451508	152.860000
307.544739	153.860000
307.637970	153.360000
307.731201	153.260000
307.824402	154.140000
307.917633	154.420000
308.010864	154.500000
308.104095	155.040000
308.197327	155.200000
308.290558	154.860000
308.383789	154.500000
308.477020	153.720000
308.570251	152.900000
308.663483	152.360000
308.756714	152.160000
308.849976	152.060000
308.943176	152.820000
309.036438	153.040000
309.129639	153.140000
309.222900	153.200000
309.316101	153.240000
309.409393	152.540000
309.502625	152.520000
309.595856	152.640000
309.689087	152.680000
309.782318	152.380000
309.875580	152.740000
309.968811	152.980000
310.062042	152.820000
310.155273	152.820000
310.248535	153.320000
310.341766	153.140000
310.434998	152.980000
310.528259	153.080000
310.621490	153.560000
310.714722	152.740000
310.807983	152.760000
310.901215	152.800000
310.994476	153.180000
311.087708	152.440000
311.181000	153.060000
311.274200	152.600000
311.367462	152.660000
311.460693	152.260000
311.553986	153.220000
311.647186	153.140000
311.740479	154.240000
311.833710	153.740000
311.926971	153.780000
312.020203	152.720000
312.113464	152.700000
312.206726	151.740000
312.299957	152.700000
312.393219	153.120000
312.486481	153.580000
312.579712	153.420000
312.672974	153.620000
312.766235	153.160000
312.859497	152.940000
312.952759	153.060000
313.045990	154.020000
313.139252	153.500000
313.232513	154.000000
313.325775	154.040000
313.419037	153.700000
313.512299	152.800000
313.605530	153.540000
313.698822	153.440000
313.792053	153.640000
313.885345	153.280000
313.978577	153.420000
314.071869	152.800000
314.165131	152.800000
314.258392	152.780000
314.351654	153.000000
314.444916	152.460000
314.538177	153.360000
314.631439	153.580000
314.724701	153.540000
314.817993	153.440000
314.911255	153.820000
315.004517	153.460000
315.097778	153.140000
315.191040	153.560000
315.284302	154.020000
315.377594	154.000000
315.470856	153.720000
315.564117	152.920000
315.657379	152.300000
315.750671	151.700000
315.843933	151.960000
315.937195	151.740000
316.030518	152.180000
316.123749	152.020000
316.217041	153.040000
316.310303	153.060000
316.403595	153.340000
316.496857	153.680000
316.590149	154.100000
316.683411	153.280000
316.776703	153.060000
316.869965	153.400000
316.963257	152.840000
317.056519	152.040000
317.149811	152.000000
317.243073	151.900000
317.336365	151.760000
317.429626	152.360000
317.522919	153.040000
317.616180	153.240000
317.709473	153.140000
317.802765	152.880000
317.896027	153.060000
317.989319	153.520000
318.082611	153.120000
318.175873	152.980000
318.269165	153.180000
318.362488	152.660000
318.455750	152.180000
318.549042	152.880000
318.642303	153.380000
318.735626	153.320000
318.828888	153.400000
318.922211	153.080000
319.015472	153.380000
319.108765	152.280000
319.202057	151.980000
319.295349	152.180000
319.388641	152.260000
319.481934	151.940000
319.575226	152.780000
319.668518	153.280000
319.761810	153.400000
319.855103	153.380000
319.948395	153.340000
320.041687	153.200000
320.134979	153.320000
320.228271	152.880000
320.321564	153.020000
320.414856	152.800000
320.508148	152.640000
320.601440	152.120000
320.694763	152.300000
320.788025	153.100000
320.881348	153.660000
320.974640	153.860000
321.067963	153.280000
321.161224	153.200000
321.254547	152.140000
321.347839	152.340000
321.441162	151.980000
321.534454	152.580000
321.627747	152.560000
321.721069	153.440000
321.814362	153.120000
321.907654	153.340000
322.000946	153.420000
322.094269	154.000000
322.187561	153.420000
322.280884	153.760000
322.374176	154.000000
322.467468	154.060000
322.560791	153.740000
322.654083	154.360000
322.747406	154.200000
322.840698	154.360000
322.934021	154.980000
323.027344	155.380000
323.120636	154.920000
323.213959	154.580000
323.307251	154.260000
323.400574	153.600000
323.493866	152.940000
323.587219	152.840000
323.680511	153.240000
323.773834	153.400000
323.867157	153.440000
323.960449	153.620000
324.053772	153.500000
324.147095	153.100000
324.240387	153.400000
324.333710	153.440000
324.427032	153.360000
324.520355	153.380000
324.613647	152.880000
324.706970	152.380000
324.800293	152.260000
324.893616	152.620000
324.986938	152.880000
325.080231	152.900000
325.173553	153.660000
325.266876	154.300000
325.360199	153.960000
325.453522	153.740000
325.546875	153.840000
325.640167	153.400000
325.733521	153.480000
325.826813	154.060000
325.920166	153.880000
326.013489	154.140000
326.106812	153.800000
326.200134	153.200000
326.293457	152.240000
326.386780	152.320000
326.480103	152.100000
326.573425	151.980000
326.666748	151.980000
326.760071	152.460000
326.853424	152.620000
326.946747	152.720000
327.040070	153.460000
327.133392	153.340000
327.226715	152.760000
327.320068	152.400000
327.413391	153.020000
327.506714	152.380000
327.600037	152.100000
327.693390	152.600000
327.786713	152.500000
327.880066	152.260000
327.973358	152.600000
328.066742	153.420000
328.160034	153.480000
328.253418	154.020000
328.346710	153.740000
328.440063	153.540000
328.533417	153.340000
328.626740	153.440000
328.720093	152.980000
328.813416	153.020000
328.906769	153.020000
329.000092	153.220000
329.093445	153.280000
329.186768	153.400000
329.280121	153.720000
329.373444	154.040000
329.466797	153.680000
329.560120	153.440000
329.653473	153.760000
329.746796	153.320000
329.840149	152.840000
329.933502	153.020000
330.026825	152.880000
330.120178	152.400000
330.213562	152.480000
330.306854	152.760000
330.400238	152.420000
330.493561	152.160000
330.586945	152.880000
330.680237	153.260000
330.773621	153.300000
330.866974	153.660000
330.960327	153.980000
331.053680	153.740000
331.147003	153.700000
331.240356	153.860000
331.333710	153.720000
331.427063	153.500000
331.520416	153.280000
331.613770	152.980000
331.707123	153.080000
331.800476	153.200000
331.893829	154.540000
331.987152	154.620000
332.080505	154.700000
332.173859	154.520000
332.267212	153.960000
332.360565	153.040000
332.453918	152.900000
332.547333	152.520000
332.640656	152.320000
332.734039	152.860000
332.827362	152.660000
332.920746	152.920000
333.014069	153.640000
333.107452	154.140000
333.200806	154.320000
333.294159	154.540000
333.387543	154.260000
333.480896	153.260000
333.574249	152.740000
333.667603	152.340000
333.760956	152.680000
333.854340	152.800000
333.947693	153.280000
334.041046	153.560000
334.134430	154.020000
334.227783	153.280000
334.321136	153.060000
334.414520	153.080000
334.507874	152.940000
334.601227	152.680000
334.694611	152.960000
334.787964	153.100000
334.881348	153.120000
334.974701	153.280000
335.068085	152.520000
335.161438	152.640000
335.254822	152.980000
335.348175	153.180000
335.441559	152.780000
335.534943	153.720000
335.628296	153.660000
335.721680	153.280000
335.815033	153.680000
335.908417	153.940000
336.001770	153.760000
336.095154	153.740000
336.188538	153.480000
336.281891	152.640000
336.375275	152.380000
336.468658	152.060000
336.562012	152.140000
336.655396	152.760000
336.748779	153.100000
336.842133	153.120000
336.935516	153.600000
337.028900	153.040000
337.122284	152.520000
337.215637	152.640000
337.309021	152.580000
337.402435	152.180000
337.495789	152.280000
337.589203	152.340000
337.682526	151.960000
337.775940	152.440000
337.869324	152.700000
337.962708	152.640000
338.056091	153.260000
338.149475	153.140000
338.242859	153.100000
338.336243	152.880000
338.429626	153.140000
338.523010	152.600000
338.616394	152.780000
338.709778	152.800000
338.803162	152.900000
338.896545	153.040000
338.989929	152.820000
339.083313	152.760000
339.176697	152.580000
339.270081	152.400000
339.363464	152.760000
339.456848	153.140000
339.550232	152.920000
339.643616	152.720000
339.737030	153.040000
339.830383	152.700000
339.923828	152.820000
340.017181	153.060000
340.110596	153.260000
340.203949	153.060000
340.297363	152.680000
340.390778	152.760000
340.484161	152.740000
340.577545	152.560000
340.670959	152.640000
340.764343	152.860000
340.857727	152.760000
340.951111	152.120000
341.044525	152.540000
341.137909	152.300000
341.231293	152.300000
341.324707	151.920000
341.418091	153.200000
341.511505	153.020000
341.604889	153.120000
341.698303	153.380000
341.791687	153.720000
341.885071	153.040000
341.978485	152.600000
342.071899	153.060000
342.165283	153.240000
342.258698	153.560000
342.352081	154.000000
342.445496	155.020000
342.538879	154.640000
342.632324	154.020000
342.725708	153.540000
342.819122	152.860000
342.912506	152.180000
343.005920	152.040000
343.099335	153.020000
343.192719	153.240000
343.286133	153.440000
343.379547	153.780000
343.472931	154.120000
343.566345	153.440000
343.659760	153.660000
343.753143	153.580000
343.846558	153.060000
343.939972	152.880000
344.033386	153.540000
344.126770	152.840000
344.220184	153.220000
344.313599	153.820000
344.407043	153.560000
344.500427	152.840000
344.593872	153.780000
344.687225	153.360000
344.780670	152.800000
344.874054	152.920000
344.967499	153.000000
345.060913	152.760000
345.154327	152.960000
345.247742	152.720000
345.341156	152.540000
345.434570	152.460000
345.527985	152.000000
345.621399	152.160000
345.714813	152.280000
345.808228	152.500000
345.901642	152.260000
345.995056	152.340000
346.088470	152.300000
346.181885	152.520000
346.275299	152.400000
346.368713	152.400000
346.462128	152.400000
346.555573	152.460000
346.648987	152.980000
346.742401	152.800000
346.835815	153.280000
346.929260	152.900000
347.022644	152.920000
347.116119	152.680000
347.209503	153.400000
347.302948	154.160000
347.396362	154.800000
347.489807	154.700000
347.583221	155.200000
347.676636	154.780000
347.770050	153.480000
347.863495	153.100000
347.956909	152.940000
348.050323	151.980000
348.143768	152.120000
348.237183	152.240000
348.330597	152.680000
348.424042	153.100000
348.517456	153.740000
348.610901	153.720000
348.704315	153.820000
348.797760	153.320000
348.891174	152.700000
348.984619	152.420000
349.078033	152.800000
349.171448	153.320000
349.264923	153.400000
349.358337	153.780000
349.451782	153.620000
349.545197	152.980000
349.638641	152.360000
349.732086	151.920000
349.825500	152.180000
349.918945	151.840000
350.012390	152.320000
350.105804	153.120000
350.199249	153.680000
350.292664	153.980000
350.386108	154.520000
350.479553	154.920000
350.572968	154.240000
350.666412	154.540000
350.759857	154.020000
350.853302	154.580000
350.946716	153.820000
351.040161	154.120000
351.133606	153.800000
351.227081	153.660000
351.320465	153.880000
351.413940	154.260000
351.507355	154.560000
351.600830	154.460000
351.694244	154.320000
351.787720	153.700000
351.881104	153.600000
351.974579	153.160000
352.067993	153.980000
352.161469	154.220000
352.254883	153.680000
352.348358	153.480000
352.441803	153.540000
352.535248	153.000000
352.628693	153.520000
352.722137	153.520000
352.815582	153.760000
352.909027	154.000000
353.002472	153.720000
353.095917	153.520000
353.189362	154.100000
353.282806	154.100000
353.376251	153.940000
353.469696	153.640000
353.563141	153.740000
353.656586	153.300000
353.750061	152.920000
353.843475	152.720000
353.936981	153.640000
354.030396	153.560000
354.123871	153.500000
354.217285	154.120000
354.310760	154.680000
354.404175	154.260000
354.497681	153.720000
354.591095	154.020000
354.684570	153.100000
354.777985	152.600000
354.871490	152.540000
354.964935	153.040000
355.058380	153.080000
355.151855	153.220000
355.245300	153.560000
355.338745	153.920000
355.432220	153.880000
355.525665	153.360000
355.619110	153.660000
355.712585	153.460000
355.806030	153.100000
355.899475	152.600000
355.992950	153.480000
356.086426	154.020000
356.179871	153.940000
356.273346	153.960000
356.366791	154.420000
356.460266	154.340000
356.553711	153.640000
356.647186	153.720000
356.740631	153.600000
356.834106	153.280000
356.927551	152.880000
357.021027	152.920000
357.114471	152.980000
357.207947	153.160000
357.301422	153.200000
357.394867	153.500000
357.488342	153.940000
357.581818	154.040000
357.675262	154.120000
357.768738	154.260000
357.862213	153.500000
357.955658	153.380000
358.049133	153.020000
358.142609	153.340000
358.236053	153.160000
358.329529	153.900000
358.423035	153.820000
358.516449	153.680000
358.609955	153.960000
358.703400	154.680000
358.796906	154.480000
358.890350	153.800000
358.983826	154.340000
359.077271	153.460000
359.170776	152.900000
359.264221	152.700000
359.357727	153.700000
359.451172	153.800000
359.544647	154.040000
359.638123	153.960000
359.731598	154.340000
359.825073	154.180000
359.918549	153.820000
360.012024	154.020000
360.105499	153.940000
360.198975	153.920000
360.292450	153.780000
360.385925	153.580000
360.479401	153.100000
360.572876	153.120000
360.666351	153.160000
360.759857	153.320000
360.853302	153.760000
360.946808	153.320000
361.040253	153.460000
361.133759	152.820000
361.227203	152.920000
361.320709	152.440000
361.414154	153.020000
361.507660	153.060000
361.601105	153.860000
361.694641	153.880000
361.788086	154.000000
361.881592	154.680000
361.975067	154.340000
362.068542	154.120000
362.162018	153.980000
362.255524	153.740000
362.348999	153.060000
362.442474	153.380000
362.535950	153.000000
362.629456	152.840000
362.722931	153.200000
362.816406	153.780000
362.909882	154.280000
363.003387	154.140000
363.096863	154.720000
363.190338	154.160000
363.283875	153.780000
363.377319	153.420000
363.470825	153.940000
363.564301	153.140000
363.657806	153.660000
363.751282	153.140000
363.844788	153.940000
363.938232	153.520000
364.031769	154.500000
364.125214	154.840000
364.218750	155.600000
364.312225	154.300000
364.405731	154.640000
364.499207	153.660000
364.592712	153.160000
364.686188	152.940000
364.779694	153.240000
364.873169	153.220000
364.966675	153.220000
365.060150	153.100000
365.153656	153.540000
365.247131	153.500000
365.340637	153.580000
365.434143	154.320000
365.527618	154.620000
365.621155	153.620000
365.714600	153.520000
365.808136	153.700000
365.901611	152.700000
365.995117	152.540000
366.088593	153.140000
366.182129	153.060000
366.275604	152.860000
366.369110	153.420000
366.462585	153.640000
366.556122	154.020000
366.649567	154.600000
366.743103	154.800000
366.836609	154.420000
366.930115	154.560000
367.023590	154.420000
367.117096	153.800000
367.210602	153.480000
367.304108	154.280000
367.397614	154.760000
367.491119	154.720000
367.584595	154.920000
367.678101	155.560000
367.771606	154.920000
367.865112	154.100000
367.958649	153.420000
368.052124	153.460000
368.145660	152.800000
368.239136	153.620000
368.332672	153.580000
368.426147	154.140000
368.519684	153.840000
368.613159	154.080000
368.706696	153.480000
368.800171	153.620000
368.893707	153.260000
368.987183	153.360000
369.080719	153.180000
369.174225	152.960000
369.267731	153.140000
369.361237	152.900000
369.454742	153.080000
369.548248	153.960000
369.641754	153.840000
369.735260	153.660000
369.828766	153.420000
369.922272	153.920000
370.015808	153.300000
370.109314	153.340000
370.202820	153.220000
370.296356	154.460000
370.389832	153.720000
370.483368	153.120000
370.576874	152.860000
370.670410	153.120000
370.763885	151.980000
370.857422	152.500000
370.950928	152.660000
371.044464	153.680000
371.137939	153.840000
371.231476	154.420000
371.324982	154.720000
371.418518	155.160000
371.512024	154.840000
371.605560	154.500000
371.699066	154.780000
371.792572	154.380000
371.886108	154.560000
371.979614	154.220000
372.073120	154.620000
372.166656	154.420000
372.260162	154.340000
372.353668	153.740000
372.447205	153.540000
372.540710	153.400000
372.634277	153.000000
372.727753	153.380000
372.821320	153.560000
372.914795	153.680000
373.008362	153.560000
373.101837	153.960000
373.195404	153.400000
373.288879	153.140000
373.382446	153.960000
373.475922	153.920000
373.569489	154.200000
373.662964	154.560000
373.756531	154.700000
373.850037	154.520000
373.943573	154.300000
374.037109	153.220000
374.130615	153.440000
374.224152	153.940000
374.317657	153.340000
374.411194	154.260000
374.504730	154.500000
374.598236	154.320000
374.691772	153.620000
374.785309	153.920000
374.878815	152.600000
374.972351	153.060000
375.065887	152.860000
375.159454	153.940000
375.252930	153.740000
375.346497	154.400000
375.440002	154.800000
375.533569	154.640000
375.627045	153.500000
375.720612	153.640000
375.814117	154.020000
375.907684	153.560000
376.001160	153.600000
376.094727	153.360000
376.188232	154.040000
376.281799	153.880000
376.375336	153.780000
376.468872	154.420000
376.562408	154.760000
376.655914	153.760000
376.749451	153.660000
376.842987	153.700000
376.936523	153.200000
377.030060	153.540000
377.123596	154.100000
377.217133	153.580000
377.310669	153.800000
377.404205	154.220000
377.497772	154.260000
377.591278	154.120000
377.684845	155.080000
377.778351	155.260000
377.871918	154.600000
377.965424	154.160000
378.058990	153.800000
378.152496	153.220000
378.246063	153.280000
378.339569	153.760000
378.433136	153.780000
378.526642	153.900000
378.620209	154.180000
378.713745	153.760000
378.807312	154.180000
378.900848	154.300000
378.994385	154.560000
379.087921	153.800000
379.181458	154.220000
379.274994	153.080000
379.368530	153.180000
379.462097	153.440000
379.555634	154.140000
379.649170	153.100000
379.742706	153.800000
379.836273	153.820000
379.929810	153.260000
380.023376	152.600000
380.116882	153.100000
380.210449	152.640000
380.303986	152.500000
380.397552	152.200000
380.491058	152.640000
380.584656	152.220000
380.678162	152.660000
380.771729	152.760000
380.865265	153.800000
380.958832	153.760000
381.052368	154.300000
381.145935	154.440000
381.239471	154.880000
381.333008	154.060000
381.426575	153.920000
381.520111	154.040000
381.613647	154.140000
381.707214	153.820000
381.800751	153.440000
381.894318	153.820000
381.987854	153.160000
382.081421	152.860000
382.174988	152.940000
382.268524	153.160000
382.362091	153.000000
382.455627	154.320000
382.549194	154.020000
382.642731	153.560000
382.736298	153.340000
382.829834	152.800000
382.923401	153.000000
383.016937	153.380000
383.110504	153.880000
383.204041	154.420000
383.297607	155.120000
383.391174	153.400000
383.484741	154.180000
383.578278	153.400000
383.671844	152.780000
383.765411	152.100000
383.858948	153.160000
383.952515	152.000000
384.046051	152.880000
384.139618	153.880000
384.233185	154.300000
384.326721	154.180000
384.420288	155.060000
384.513855	154.660000
384.607422	154.640000
384.700989	154.760000
384.794525	154.280000
384.888123	154.280000
384.981659	154.460000
385.075226	153.880000
385.168762	153.680000
385.262360	154.040000
385.355896	152.900000
385.449463	152.840000
385.542999	152.940000
385.636597	153.700000
385.730164	154.000000
385.823730	154.040000
385.917267	153.640000
386.010834	153.820000
386.104401	153.280000
386.197968	153.260000
386.291534	153.880000
386.385101	154.240000
386.478668	154.320000
386.572235	154.420000
386.665802	154.000000
386.759338	153.480000
386.852905	153.200000
386.946472	152.960000
387.040070	152.960000
387.133606	153.180000
387.227203	153.420000
387.320740	153.760000
387.414337	153.420000
387.507874	153.200000
387.601471	153.240000
387.695007	153.020000
387.788605	152.780000
387.882141	153.120000
387.975739	153.240000
388.069275	152.800000
388.162872	153.000000
388.256439	153.060000
388.350037	152.700000
388.443604	152.460000
388.537170	152.620000
388.630737	153.080000
388.724304	153.460000
388.817871	153.840000
388.911438	153.740000
389.005005	153.960000
389.098602	154.320000
389.192169	153.580000
389.285736	153.880000
389.379333	154.300000
389.472870	153.800000
389.566467	153.200000
389.660034	153.460000
389.753632	153.240000
389.847168	153.460000
389.940765	153.920000
390.034332	154.180000
390.127930	153.800000
390.221466	153.700000
390.315063	152.920000
390.408630	152.100000
390.502228	151.260000
390.595795	151.660000
390.689362	151.760000
390.782959	152.760000
390.876526	153.340000
390.970093	153.400000
391.063690	153.800000
391.157257	154.060000
391.250824	153.960000
391.344421	154.100000
391.437988	154.600000
391.531555	154.320000
391.625153	153.920000
391.718750	153.940000
391.812317	153.760000
391.905914	153.360000
391.999481	153.900000
392.093079	154.100000
392.186615	154.240000
392.280243	154.100000
392.373779	154.460000
392.467407	154.720000
392.560944	154.660000
392.654572	153.940000
392.748108	154.420000
392.841736	154.660000
392.935303	153.760000
393.028900	153.380000
393.122467	153.320000
393.216064	152.720000
393.309631	151.880000
393.403229	151.960000
393.496796	152.060000
393.590393	151.760000
393.683990	152.100000
393.777557	152.820000
393.871155	153.060000
393.964722	153.600000
394.058350	153.840000
394.151917	154.000000
394.245514	153.860000
394.339081	153.860000
394.432678	153.760000
394.526245	153.920000
394.619873	153.640000
394.713409	153.740000
394.807037	153.500000
394.900604	153.520000
394.994202	153.780000
395.087769	153.940000
395.181396	153.520000
395.274994	154.600000
395.368561	154.060000
395.462158	153.780000
395.555756	153.380000
395.649353	153.560000
395.742920	152.400000
395.836517	153.140000
395.930115	152.600000
396.023712	152.960000
396.117279	153.420000
396.210876	153.120000
396.304474	152.760000
396.398071	153.380000
396.491669	153.880000
396.585266	153.180000
396.678833	153.420000
396.772461	153.400000
396.866028	152.940000
396.959656	152.760000
397.053223	153.260000
397.146851	152.920000
397.240417	153.160000
397.334015	153.900000
397.427582	153.560000
397.521210	153.260000
397.614807	153.600000
397.708405	153.320000
397.802002	153.060000
397.895599	153.880000
397.989197	153.860000
398.082794	154.340000
398.176392	154.620000
398.269989	154.540000
398.363586	154.020000
398.457184	155.060000
398.550781	154.860000
398.644379	154.780000
398.737976	154.780000
398.831573	154.940000
398.925201	154.340000
399.018768	155.120000
399.112396	156.020000
399.205963	158.340000
399.299591	161.160000
399.393158	165.200000
399.486786	171.700000
399.580353	182.300000
399.673981	201.140000
399.767578	229.700000
399.861206	266.980000
399.954773	305.520000
400.048401	335.820000
400.141998	346.540000
400.235596	337.980000
400.329193	309.260000
400.422791	270.860000
400.516418	232.960000
400.610016	203.760000
400.703613	183.720000
400.797211	172.000000
400.890808	166.200000
400.984436	163.420000
401.078033	161.860000
401.171631	159.520000
401.265259	159.060000
401.358826	158.040000
401.452484	157.820000
401.546051	157.500000
401.639679	157.140000
401.733246	156.760000
401.826904	156.320000
401.920471	155.040000
402.014099	154.600000
402.107697	154.540000
402.201324	154.560000
402.294891	155.040000
402.388550	155.560000
402.482147	155.500000
402.575745	154.880000
402.669373	154.120000
402.762970	153.420000
402.856567	153.200000
402.950195	153.440000
403.043793	153.300000
403.137390	154.260000
403.231018	153.820000
403.324615	154.340000
403.418243	153.720000
403.511841	154.480000
403.605469	153.960000
403.699066	154.580000
403.792694	154.040000
403.886292	154.220000
403.979919	154.260000
404.073517	154.320000
404.167145	154.460000
404.260712	154.780000
404.354370	154.640000
404.447937	154.640000
404.541595	154.860000
404.635162	154.980000
404.728821	155.240000
404.822418	154.840000
404.916046	154.260000
405.009644	154.260000
405.103271	154.320000
405.196899	153.460000
405.290497	153.860000
405.384125	154.420000
405.477722	153.640000
405.571350	152.980000
405.664948	153.500000
405.758575	153.200000
405.852203	152.420000
405.945801	152.920000
406.039429	152.980000
406.133057	152.700000
406.226654	152.640000
406.320312	153.020000
406.413879	153.200000
406.507538	153.580000
406.601135	153.200000
406.694763	154.020000
406.788361	153.740000
406.882019	153.280000
406.975586	153.480000
407.069244	154.260000
407.162872	154.000000
407.256470	154.020000
407.350098	154.060000
407.443726	153.620000
407.537323	152.720000
407.630951	152.800000
407.724579	152.820000
407.818207	153.400000
407.911804	153.340000
408.005432	153.720000
408.099060	153.740000
408.192688	154.000000
408.286285	153.600000
408.379913	153.280000
408.473572	153.840000
408.567169	153.140000
408.660828	153.180000
408.754395	153.000000
408.848053	153.380000
408.941650	153.240000
409.035309	153.020000
409.128906	153.020000
409.222565	152.820000
409.316132	152.800000
409.409790	152.200000
409.503387	152.460000
409.597046	152.300000
409.690674	152.900000
409.784302	152.940000
409.877930	153.380000
409.971558	153.800000
410.065186	153.780000
410.158783	153.720000
410.252411	153.500000
410.346039	153.660000
410.439667	153.480000
410.533295	153.800000
410.626923	153.760000
410.720551	153.680000
410.814209	154.000000
410.907806	154.280000
411.001465	153.640000
411.095062	153.840000
411.188721	154.100000
411.282318	153.460000
411.375977	152.960000
411.469574	153.380000
411.563232	153.040000
411.656830	153.080000
411.750488	152.940000
411.844086	153.120000
411.937744	153.360000
412.031372	153.160000
412.125000	153.020000
412.218628	153.260000
412.312256	153.760000
412.405884	154.160000
412.499512	154.020000
412.593170	154.140000
412.686798	154.440000
412.780426	153.840000
412.874054	153.660000
412.967682	154.160000
413.061310	154.720000
413.154968	154.480000
413.248566	154.780000
413.342224	154.200000
413.435852	153.960000
413.529510	153.400000
413.623108	153.000000
413.716766	152.800000
413.810364	153.500000
413.904022	153.340000
413.997650	153.080000
414.091309	153.940000
414.184906	154.120000
414.278564	153.500000
414.372192	153.900000
414.465851	154.440000
414.559479	153.740000
414.653107	154.440000
414.746735	154.420000
414.840393	154.280000
414.934021	154.240000
415.027649	154.160000
415.121277	153.660000
415.214935	154.380000
415.308563	154.380000
415.402191	153.720000
415.495850	153.820000
415.589478	153.480000
415.683136	152.740000
415.776733	153.020000
415.870422	153.780000
415.964020	153.260000
416.057678	153.960000
416.151306	153.880000
416.244965	153.320000
416.338562	152.900000
416.432251	153.680000
416.525848	153.860000
416.619507	154.540000
416.713165	154.940000
416.806793	155.160000
416.900421	155.180000
416.994080	154.160000
417.087708	153.580000
417.181366	153.180000
417.274994	152.840000
417.368622	152.900000
417.462280	153.660000
417.555908	153.740000
417.649567	153.820000
417.743195	154.180000
417.836853	154.200000
417.930481	154.120000
418.024170	154.300000
418.117767	154.880000
418.211426	155.060000
418.305054	155.020000
418.398712	154.180000
418.492340	154.080000
418.585999	154.340000
418.679626	154.200000
418.773285	154.420000
418.866913	155.280000
418.960571	155.360000
419.054230	155.040000
419.147858	154.940000
419.241516	155.020000
419.335144	154.440000
419.428802	154.440000
419.522461	154.000000
419.616089	153.900000
419.709747	153.960000
419.803375	154.360000
419.897034	154.040000
419.990662	153.940000
420.084320	154.180000
420.177979	154.100000
420.271606	153.920000
420.365295	154.480000
420.458893	155.020000
420.552582	155.340000
420.646210	155.320000
420.739868	155.020000
420.833496	154.880000
420.927155	154.260000
421.020782	153.720000
421.114471	153.020000
421.208069	153.620000
421.301758	153.480000
421.395386	154.060000
421.489044	153.960000
421.582703	154.000000
421.676361	154.620000
421.769989	154.520000
421.863647	154.440000
421.957306	154.540000
422.050934	155.080000
422.144592	154.280000
422.238251	153.940000
422.331909	153.680000
422.425537	153.520000
422.519196	153.500000
422.612854	153.380000
422.706543	153.060000
422.800140	153.480000
422.893829	153.300000
422.987457	152.780000
423.081146	152.980000
423.174744	154.060000
423.268433	153.620000
423.362061	153.840000
423.455750	153.600000
423.549347	153.320000
423.643036	152.400000
423.736664	153.160000
423.830353	153.060000
423.924011	154.060000
424.017639	153.660000
424.111298	153.920000
424.204956	153.260000
424.298615	153.540000
424.392273	152.880000
424.485931	153.160000
424.579559	153.480000
424.673218	153.400000
424.766876	153.480000
424.860535	153.100000
424.954193	153.100000
425.047882	153.360000
425.141510	153.620000
425.235199	153.540000
425.328796	153.940000
425.422485	153.900000
425.516113	153.360000
425.609802	153.260000
425.703430	153.480000
425.797119	153.080000
425.890747	153.480000
425.984436	153.620000
426.078064	153.780000
426.171753	153.780000
426.265411	154.080000
426.359070	154.040000
426.452728	154.240000
426.546356	154.040000
426.640015	153.620000
426.733673	153.580000
426.827332	153.320000
426.920990	153.820000
427.014648	153.500000
427.108307	153.880000
427.201965	154.500000
427.295624	154.760000
427.389282	153.880000
427.482941	154.280000
427.576630	154.400000
427.670258	153.560000
427.763947	153.420000
427.857574	153.500000
427.951263	153.520000
428.044922	152.940000
428.138611	153.540000
428.232239	154.120000
428.325928	154.740000
428.419556	155.380000
428.513245	155.320000
428.606903	155.320000
428.700562	154.660000
428.794220	153.660000
428.887878	152.860000
428.981537	153.300000
429.075195	153.240000
429.168854	153.800000
429.262512	154.520000
429.356201	154.780000
429.449860	154.740000
429.543518	154.600000
429.637177	154.560000
429.730835	154.260000
429.824493	154.340000
429.918182	154.660000
430.011810	154.080000
430.105530	153.500000
430.199158	153.840000
430.292847	153.560000
430.386475	153.220000
430.480164	153.420000
430.573792	153.260000
430.667511	152.860000
430.761139	152.900000
430.854828	153.360000
430.948456	153.960000
431.042145	154.740000
431.135834	154.920000
431.229492	155.180000
431.323151	155.240000
431.416809	154.720000
431.510468	154.480000
431.604156	154.460000
431.697815	154.340000
431.791473	153.680000
431.885132	153.940000
431.978821	154.140000
432.072479	154.500000
432.166138	154.940000
432.259827	154.640000
432.353485	154.820000
432.447174	154.660000
432.540802	154.300000
432.634491	154.120000
432.728149	154.820000
432.821838	155.480000
432.915466	155.080000
433.009186	155.240000
433.102814	154.540000
433.196503	154.180000
433.290131	153.640000
433.383850	154.000000
433.477509	154.340000
433.571167	155.300000
433.664856	155.900000
433.758514	156.420000
433.852173	156.540000
433.945862	156.100000
434.039520	155.740000
434.133179	155.120000
434.226868	154.420000
434.320526	153.820000
434.414185	154.340000
434.507874	154.040000
434.601562	154.720000
434.695221	154.480000
434.788910	154.880000
434.882538	154.920000
434.976257	154.600000
435.069885	154.400000
435.163574	155.080000
435.257233	154.580000
435.350922	154.200000
435.444580	153.880000
435.538269	153.420000
435.631897	153.720000
435.725616	154.500000
435.819275	155.240000
435.912964	156.380000
436.006622	156.860000
436.100311	156.240000
436.193970	155.440000
436.287628	154.760000
436.381317	154.240000
436.474976	153.540000
436.568665	153.340000
436.662323	153.600000
436.756012	153.500000
436.849670	153.340000
436.943390	153.760000
437.037018	153.660000
437.130737	154.100000
437.224365	153.980000
437.318085	154.260000
437.411713	154.240000
437.505432	154.720000
437.599060	154.900000
437.692780	155.580000
437.786407	155.540000
437.880127	155.400000
437.973755	154.920000
438.067474	154.480000
438.161133	154.200000
438.254822	154.720000
438.348480	154.280000
438.442169	155.040000
438.535828	155.160000
438.629517	154.620000
438.723175	153.520000
438.816864	154.820000
438.910553	154.080000
439.004211	153.980000
439.097900	154.140000
439.191559	154.500000
439.285248	153.160000
439.378906	153.620000
439.472626	153.520000
439.566284	153.360000
439.659973	153.840000
439.753632	153.900000
439.847321	154.200000
439.940979	154.060000
440.034698	154.080000
440.128326	153.340000
440.222046	153.420000
440.315674	152.080000
440.409393	152.400000
440.503082	152.620000
440.596741	153.120000
440.690430	153.320000
440.784088	153.980000
440.877777	153.340000
440.971466	153.220000
441.065125	152.980000
441.158813	152.860000
441.252502	152.700000
441.346161	153.260000
441.439850	153.680000
441.533539	153.420000
441.627197	153.760000
441.720886	153.540000
441.814606	153.780000
441.908234	153.820000
442.001953	154.000000
442.095612	153.940000
442.189301	154.460000
442.282959	154.140000
442.376678	153.100000
442.470306	153.840000
442.564026	153.880000
442.657684	154.000000
442.751404	154.120000
442.845032	155.160000
442.938751	154.200000
443.032440	154.200000
443.126099	153.660000
443.219788	153.980000
443.313477	153.640000
443.407166	154.500000
443.500824	154.400000
443.594513	154.840000
443.688202	154.620000
443.781891	153.880000
443.875549	153.320000
443.969238	153.560000
444.062927	153.540000
444.156647	153.320000
444.250275	154.160000
444.343994	154.040000
444.437653	154.200000
444.531372	153.920000
444.625031	153.720000
444.718719	153.300000
444.812378	153.080000
444.906097	152.500000
444.999756	152.260000
445.093445	152.420000
445.187103	152.600000
445.280823	153.420000
445.374512	153.020000
445.468201	153.280000
445.561859	153.100000
445.655548	153.260000
445.749237	152.440000
445.842926	152.880000
445.936615	153.080000
446.030304	153.100000
446.123962	153.180000
446.217651	153.560000
446.311340	153.720000
446.405029	153.400000
446.498749	153.240000
446.592407	153.040000
446.686096	153.160000
446.779755	153.100000
446.873474	153.460000
446.967133	153.740000
447.060852	153.460000
447.154510	153.160000
447.248230	153.280000
447.341858	153.320000
447.435577	152.840000
447.529236	152.660000
447.622955	152.720000
447.716644	152.460000
447.810333	152.380000
447.904022	152.940000
447.997711	153.200000
448.091400	153.840000
448.185059	154.020000
448.278748	154.180000
448.372437	153.880000
448.466125	154.020000
448.559814	153.260000
448.653503	153.520000
448.747192	153.720000
448.840912	154.140000
448.934570	154.220000
449.028290	154.580000
449.121948	154.180000
449.215637	153.740000
449.309296	153.100000
449.403015	153.140000
449.496674	153.160000
449.590393	153.200000
449.684052	152.840000
449.777771	154.020000
449.871429	153.440000
449.965149	153.380000
450.058838	153.760000
450.152527	154.620000
450.246216	153.880000
450.339905	154.280000
450.433594	154.020000
450.527283	154.380000
450.620972	153.700000
450.714661	153.760000
450.808350	153.800000
450.902039	154.000000
450.995728	153.360000
451.089417	153.220000
451.183105	153.200000
451.276794	153.420000
451.370514	152.820000
451.464172	152.180000
451.557892	152.320000
451.651550	152.400000
451.745270	151.980000
451.838928	151.760000
451.932648	152.340000
452.026306	152.860000
452.120026	152.580000
452.213684	152.940000
452.307404	153.440000
452.401062	153.480000
452.494781	153.540000
452.588470	153.760000
452.682159	153.040000
452.775848	153.140000
452.869537	152.820000
452.963226	152.000000
453.056915	151.800000
453.150604	152.260000
453.244293	152.340000
453.337982	153.020000
453.431671	153.820000
453.525360	154.420000
453.619049	154.200000
453.712769	154.240000
453.806427	153.360000
453.900146	152.480000
453.993805	152.100000
454.087555	152.820000
454.181213	152.860000
454.274933	153.140000
454.368591	153.340000
454.462311	153.240000
454.555969	152.740000
454.649689	153.500000
454.743347	153.300000
454.837067	153.920000
454.930756	154.520000
455.024445	154.580000
455.118134	154.060000
455.211853	154.340000
455.305542	153.860000
455.399231	153.520000
455.492920	153.500000
455.586609	153.440000
455.680298	153.740000
455.773987	153.460000
455.867676	153.220000
455.961365	153.420000
456.055084	153.160000
456.148773	152.580000
456.242493	153.140000
456.336151	153.140000
456.429871	153.180000
456.523529	153.820000
456.617249	153.940000
456.710907	154.320000
456.804626	154.260000
456.898315	153.780000
456.992035	153.360000
457.085693	153.220000
457.179413	152.400000
457.273102	153.440000
457.366791	154.020000
457.460480	154.360000
457.554199	155.220000
457.647888	155.380000
457.741577	154.400000
457.835266	154.160000
457.928955	154.040000
458.022644	154.060000
458.116364	154.280000
458.210052	154.400000
458.303741	154.360000
458.397461	153.580000
458.491119	152.800000
458.584839	152.800000
458.678528	152.560000
458.772247	152.180000
458.865906	152.680000
458.959625	153.820000
459.053284	153.860000
459.147003	153.980000
459.240692	154.900000
459.334412	155.140000
459.428070	154.200000
459.521790	154.080000
459.615479	154.000000
459.709198	154.080000
459.802887	153.580000
459.896576	153.640000
459.990265	153.600000
460.083954	153.940000
460.177673	153.340000
460.271362	153.560000
460.365051	153.320000
460.458740	153.260000
460.552429	152.740000
460.646149	152.700000
460.739838	152.480000
460.833527	152.860000
460.927246	152.680000
461.020905	152.800000
461.114655	152.840000
461.208313	153.060000
461.302032	152.620000
461.395691	152.940000
461.489441	152.980000
461.583099	153.100000
461.676819	152.820000
461.770477	153.320000
461.864197	153.120000
461.957916	152.840000
462.051605	152.280000
462.145294	153.500000
462.238983	153.120000
462.332703	153.420000
462.426392	154.200000
462.520081	154.320000
462.613770	153.360000
462.707489	153.780000
462.801178	153.580000
462.894867	153.120000
462.988556	153.180000
463.082275	153.380000
463.175964	152.640000
463.269684	153.040000
463.363342	153.160000
463.457092	152.600000
463.550751	152.820000
463.644470	153.480000
463.738129	153.040000
463.831879	153.140000
463.925537	154.200000
464.019257	154.000000
464.112946	153.780000
464.206665	153.560000
464.300323	153.420000
464.394043	153.000000
464.487762	153.000000
464.581451	153.140000
464.675140	153.640000
464.768829	153.840000
464.862549	153.960000
464.956238	154.160000
465.049927	154.100000
465.143646	154.260000
465.237335	153.940000
465.331024	154.280000
465.424713	153.980000
465.518433	153.940000
465.612152	153.400000
465.705811	153.640000
465.799561	153.580000
465.893219	153.520000
465.986938	153.440000
466.080597	153.340000
466.174347	153.620000
466.268005	153.260000
466.361725	153.080000
466.455414	153.240000
466.549133	152.900000
466.642792	152.880000
466.736542	152.520000
466.830231	152.760000
466.923920	152.860000
467.017609	153.440000
467.111328	152.820000
467.205017	153.160000
467.298706	153.040000
467.392426	153.020000
467.486115	153.300000
467.579803	153.320000
467.673523	153.860000
467.767212	154.040000
467.860901	153.960000
467.954651	153.900000
468.048309	154.400000
468.142029	154.140000
468.235718	154.160000
468.329437	153.740000
468.423096	153.740000
468.516846	153.300000
468.610504	153.100000
468.704224	152.820000
468.797913	153.080000
468.891632	152.980000
468.985291	153.000000
469.079010	153.020000
469.172729	152.580000
469.266418	153.020000
469.360107	152.880000
469.453827	153.180000
469.547516	153.200000
469.641205	153.760000
469.734924	153.720000
469.828613	153.860000
469.922302	153.640000
470.016022	153.620000
470.109711	153.680000
470.203430	153.020000
470.297150	152.500000
470.390808	153.000000
470.484558	152.940000
470.578217	153.360000
470.671936	154.020000
470.765625	154.980000
470.859344	154.300000
470.953003	154.700000
471.046753	154.140000
471.140411	153.500000
471.234131	153.420000
471.327820	154.120000
471.421539	153.680000
471.515228	153.300000
471.608948	153.700000
471.702637	153.040000
471.796326	152.660000
471.890045	153.260000
471.983734	153.900000
472.077423	153.520000
472.171143	153.940000
472.264832	153.820000
472.358521	153.220000
472.452240	152.660000
472.545929	153.560000
472.639648	153.500000
472.733337	153.820000
472.827057	154.220000
472.920746	154.400000
473.014465	154.380000
473.108124	154.600000
473.201874	154.480000
473.295532	153.960000
473.389252	154.320000
473.482941	154.380000
473.576660	153.820000
473.670319	153.700000
473.764069	154.180000
473.857727	154.180000
473.951477	153.940000
474.045166	154.580000
474.138855	154.480000
474.232574	154.280000
474.326263	154.200000
474.419952	154.120000
474.513672	153.740000
474.607361	153.440000
474.701050	153.640000
474.794769	153.900000
474.888458	153.980000
474.982178	153.820000
475.075867	154.560000
475.169586	154.380000
475.263275	154.000000
475.356995	154.020000
475.450653	153.840000
475.544403	153.160000
475.638062	154.020000
475.731812	153.760000
475.825470	153.380000
475.919189	153.820000
476.012878	154.140000
476.106598	153.000000
476.200256	153.700000
476.294006	153.820000
476.387695	153.760000
476.481384	153.660000
476.575104	154.260000
476.668793	153.580000
476.762512	153.320000
476.856201	153.720000
476.949890	153.560000
477.043610	152.660000
477.137299	152.840000
477.230988	153.160000
477.324707	152.660000
477.418396	153.160000
477.512146	153.900000
477.605804	154.000000
477.699524	153.920000
477.793213	153.660000
477.886932	153.360000
477.980591	152.960000
478.074341	152.580000
478.167999	152.340000
478.261749	152.720000
478.355408	152.860000
478.449127	153.060000
478.542816	153.980000
478.636536	154.540000
478.730225	154.440000
478.823944	154.700000
478.917633	154.800000
479.011322	155.000000
479.105042	154.940000
479.198730	155.180000
479.292450	155.040000
479.386139	155.120000
479.479828	154.580000
479.573547	154.940000
479.667267	154.980000
479.760925	154.780000
479.854675	155.080000
479.948334	155.120000
480.042084	154.260000
480.135742	154.320000
480.229462	153.860000
480.323151	153.340000
480.416870	152.880000
480.510529	153.080000
480.604279	152.360000
480.697937	153.020000
480.791656	152.640000
480.885345	152.400000
480.979065	152.500000
481.072754	153.160000
481.166473	153.340000
481.260132	153.520000
481.353882	153.780000
481.447540	153.360000
481.541260	153.420000
481.635010	152.880000
481.728668	152.960000
481.822388	153.060000
481.916077	153.680000
482.009796	153.240000
482.103485	153.500000
482.197205	153.460000
482.290863	153.420000
482.384613	152.900000
482.478271	152.780000
482.571991	152.660000
482.665680	152.640000
482.759399	153.620000
482.853058	153.960000
482.946808	154.060000
483.040466	153.940000
483.134216	153.840000
483.227875	152.940000
483.321594	153.600000
483.415283	153.520000
483.509003	153.680000
483.602661	154.060000
483.696411	154.280000
483.790070	153.780000
483.883789	154.000000
483.977478	153.740000
484.071198	153.700000
484.164917	153.080000
484.258606	152.600000
484.352325	152.940000
484.445984	153.600000
484.539734	153.420000
484.633392	153.300000
484.727142	153.960000
484.820801	153.720000
484.914520	153.560000
485.008209	153.780000
485.101929	154.580000
485.195587	154.360000
485.289337	154.340000
485.382996	154.220000
485.476715	154.200000
485.570404	154.400000
485.664124	154.260000
485.757782	154.580000
485.851532	154.100000
485.945190	154.180000
486.038910	154.040000
486.132599	154.220000
486.226318	153.260000
486.319977	153.460000
486.413727	153.600000
486.507446	152.900000
486.601105	152.500000
486.694855	152.760000
486.788513	152.860000
486.882233	152.520000
486.975922	152.840000
487.069641	152.760000
487.163300	152.960000
487.257050	154.160000
487.350708	154.080000
487.444427	153.840000
487.538116	154.140000
487.631836	154.040000
487.725494	153.180000
487.819214	153.220000
487.912903	153.280000
488.006622	153.520000
488.100281	153.640000
488.194031	153.300000
488.287689	154.040000
488.381409	155.020000
488.475098	154.660000
488.568817	155.000000
488.662476	154.760000
488.756226	153.640000
488.849945	152.420000
488.943604	152.500000
489.037354	152.520000
489.131012	153.020000
489.224731	152.960000
489.318390	153.100000
489.412140	153.120000
489.505798	152.680000
489.599518	152.300000
489.693207	152.700000
489.786926	152.860000
489.880585	152.660000
489.974335	153.140000
490.067993	154.180000
490.161713	154.500000
490.255371	155.260000
490.349121	155.440000
490.442780	154.760000
490.536499	153.720000
490.630188	153.760000
490.723907	153.040000
490.817566	153.020000
490.911285	153.540000
491.004974	153.500000
491.098694	153.160000
491.192413	153.780000
491.286102	153.620000
491.379822	153.560000
491.473480	153.600000
491.567200	153.560000
491.660889	152.720000
491.754608	152.860000
491.848267	152.760000
491.941986	152.940000
492.035675	153.040000
492.129395	153.700000
492.223053	153.580000
492.316772	153.640000
492.410461	153.540000
492.504181	153.580000
492.597839	152.940000
492.691559	152.940000
492.785248	153.140000
492.878967	153.100000
492.972626	152.520000
493.066345	152.760000
493.160034	152.400000
493.253754	151.840000
493.347412	151.500000
493.441132	152.060000
493.534882	152.340000
493.628540	153.000000
493.722260	153.620000
493.815918	153.820000
493.909668	154.140000
494.003326	154.420000
494.097046	154.120000
494.190704	153.660000
494.284454	153.860000
494.378113	153.760000
494.471832	153.340000
494.565491	153.080000
494.659210	152.980000
494.752899	152.840000
494.846619	152.400000
494.940277	152.780000
495.033997	152.920000
495.127686	152.840000
495.221405	152.720000
495.315063	153.020000
495.408783	152.800000
495.502441	152.780000
495.596191	153.080000
495.689850	153.080000
495.783569	153.320000
495.877228	153.460000
495.970947	153.280000
496.064697	153.080000
496.158356	154.020000
496.252075	153.780000
496.345734	153.280000
496.439453	154.580000
496.533142	154.980000
496.626862	154.960000
496.720520	154.760000
496.814240	155.120000
496.907898	154.280000
497.001617	154.140000
497.095306	153.120000
497.189026	153.280000
497.282684	153.340000
497.376404	153.740000
497.470062	153.380000
497.563782	153.700000
497.657471	153.680000
497.751190	153.520000
497.844849	153.360000
497.938568	153.960000
498.032227	154.100000
498.125946	154.040000
498.219635	153.900000
498.313354	153.980000
498.407074	153.540000
498.500732	153.640000
498.594452	153.760000
498.688110	153.640000
498.781830	153.100000
498.875519	152.980000
498.969238	152.620000
499.062897	152.320000
499.156616	152.820000
499.250275	153.060000
499.343994	152.900000
499.437653	152.900000
499.531372	153.280000
499.625061	153.580000
499.718781	153.700000
499.812439	154.380000
499.906158	154.280000
499.999817	154.060000
500.093536	153.400000
500.187195	153.500000
500.280914	153.400000
500.374573	153.920000
500.468323	154.060000
500.561981	154.160000
500.655701	153.580000
500.749420	153.400000
500.843079	153.360000
500.936798	153.400000
501.030457	154.040000
501.124176	154.620000
501.217834	154.480000
501.311554	154.340000
501.405212	153.980000
501.498962	152.920000
501.592621	152.600000
501.686340	152.880000
501.779999	153.140000
501.873718	153.500000
501.967377	153.920000
502.061096	154.180000
502.154755	153.700000
502.248474	153.520000
502.342133	153.420000
502.435852	153.360000
502.529510	153.860000
502.623230	154.880000
502.716888	154.340000
502.810608	154.280000
502.904266	154.760000
502.997986	153.920000
503.091705	152.880000
503.185364	153.160000
503.279083	153.200000
503.372772	152.780000
503.466492	152.740000
503.560150	153.120000
503.653870	153.380000
503.747528	153.440000
503.841248	153.280000
503.934906	153.540000
504.028625	153.080000
504.122284	153.100000
504.216003	153.800000
504.309662	153.580000
504.403381	153.780000
504.497040	154.100000
504.590759	153.640000
504.684418	153.300000
504.778137	153.980000
504.871796	154.080000
504.965515	153.940000
505.059174	154.060000
505.152893	153.440000
505.246521	152.880000
505.340240	152.340000
505.433899	152.640000
505.527618	153.060000
505.621338	153.560000
505.714996	153.480000
505.808716	153.340000
505.902374	153.680000
505.996094	153.640000
506.089752	153.180000
506.183472	153.380000
506.277130	153.740000
506.370850	153.440000
506.464508	152.860000
506.558228	153.140000
506.651886	153.140000
506.745605	152.940000
506.839264	152.720000
506.932983	153.100000
507.026611	152.780000
507.120331	153.040000
507.213989	152.720000
507.307709	152.800000
507.401367	152.940000
507.495087	153.900000
507.588745	153.360000
507.682465	154.520000
507.776123	154.380000
507.869843	154.200000
507.963531	153.740000
508.057190	154.760000
508.150909	153.560000
508.244568	153.720000
508.338287	153.520000
508.431946	153.380000
508.525665	152.660000
508.619324	152.940000
508.713013	153.120000
508.806671	153.640000
508.900391	154.180000
508.994049	154.160000
509.087769	154.120000
509.181427	153.960000
509.275146	153.360000
509.368774	152.520000
509.462494	152.560000
509.556152	152.580000
509.649872	153.020000
509.743530	153.380000
509.837250	153.540000
509.930878	153.400000
510.024597	153.280000
510.118256	152.840000
510.211975	152.880000
510.305695	152.440000
510.399353	152.780000
510.493042	153.480000
510.586700	153.860000
510.680420	154.560000
510.774078	154.800000
510.867798	154.820000
510.961426	154.060000
511.055145	153.880000
511.148804	152.880000
511.242523	153.400000
511.336151	153.400000
511.429871	153.940000
511.523529	153.560000
511.617249	153.620000
511.710876	153.320000
511.804596	152.920000
511.898254	152.600000
511.991974	153.240000
512.085632	153.180000
512.179321	153.540000
512.272949	154.180000
512.366699	154.800000
512.460327	154.620000
512.554077	155.880000
512.647766	155.440000
512.741394	155.080000
512.835144	155.360000
512.928772	155.000000
513.022461	154.020000
513.116150	153.660000
513.209839	154.220000
513.303467	153.500000
513.397217	153.340000
513.490845	153.040000
513.584595	153.160000
513.678223	152.160000
513.771912	151.620000
513.865601	151.860000
513.959290	151.700000
514.052917	151.860000
514.146667	153.180000
514.240295	153.760000
514.333984	153.980000
514.427673	154.420000
514.521362	155.060000
514.614990	153.900000
514.708740	153.980000
514.802368	154.080000
514.896057	154.040000
514.989746	154.440000
515.083435	154.100000
515.177124	154.240000
515.270752	154.020000
515.364502	154.040000
515.458130	153.480000
515.551819	153.980000
515.645508	153.600000
515.739197	153.540000
515.832825	153.800000
515.926575	153.600000
516.020203	154.040000
516.113892	154.800000
516.207520	154.800000
516.301270	154.660000
516.394897	154.740000
516.488586	154.940000
516.582275	154.520000
516.675964	154.020000
516.769592	154.020000
516.863281	154.820000
516.956970	155.020000
517.050659	154.900000
517.144287	155.380000
517.238037	155.360000
517.331665	154.200000
517.425354	153.260000
517.519043	153.160000
517.612732	153.280000
517.706421	153.100000
517.800049	153.320000
517.893738	153.400000
517.987427	153.420000
518.081116	153.020000
518.174744	152.740000
518.268433	152.880000
518.362122	153.600000
518.455811	153.840000
518.549438	154.600000
518.643127	155.600000
518.736816	155.380000
518.830505	154.720000
518.924133	154.260000
519.017822	154.100000
519.111511	153.760000
519.205200	154.400000
519.298828	154.320000
519.392517	154.280000
519.486206	154.420000
519.579895	154.080000
519.673523	153.500000
519.767212	153.660000
519.860901	154.120000
519.954590	153.920000
520.048279	153.540000
520.141907	153.580000
520.235596	154.380000
520.329224	154.200000
520.422974	154.140000
520.516602	154.240000
520.610291	153.680000
520.703918	153.260000
520.797607	152.780000
520.891296	152.600000
520.984985	152.940000
521.078613	153.760000
521.172302	152.940000
521.265930	154.140000
521.359680	154.420000
521.453308	154.280000
521.546997	153.960000
521.640625	154.440000
521.734314	153.760000
521.827942	153.640000
521.921692	153.500000
522.015320	153.940000
522.109009	153.820000
522.202698	153.680000
522.296326	153.320000
522.390015	154.100000
522.483704	154.060000
522.577393	154.100000
522.671021	154.040000
522.764709	153.880000
522.858337	153.820000
522.952026	153.440000
523.045654	153.800000
523.139404	154.560000
523.233032	154.860000
523.326721	154.100000
523.420349	154.140000
523.514038	153.920000
523.607666	153.880000
523.701355	153.520000
523.795044	153.760000
523.888733	153.820000
523.982361	153.900000
524.076050	153.220000
524.169678	153.840000
524.263367	153.560000
524.356995	153.120000
524.450684	152.720000
524.544373	152.760000
524.638062	152.520000
524.731750	152.860000
524.825378	153.200000
524.919067	152.660000
525.012695	152.600000
525.106384	152.580000
525.200012	152.880000
525.293701	152.800000
525.387329	153.900000
525.481018	154.400000
525.574646	154.660000
525.668396	154.440000
525.762024	154.820000
525.855713	154.720000
525.949341	153.940000
526.043030	153.740000
526.136658	153.260000
526.230347	152.520000
526.323975	151.920000
526.417664	151.940000
526.511292	152.340000
526.604980	152.640000
526.698608	152.720000
526.792297	153.180000
526.885925	153.360000
526.979614	153.240000
527.073303	153.100000
527.166931	153.380000
527.260620	153.380000
527.354309	154.120000
527.447998	153.740000
527.541626	153.760000
527.635315	153.920000
527.728943	154.340000
527.822632	153.940000
527.916260	154.240000
528.009949	154.400000
528.103577	153.880000
528.197266	153.040000
528.290894	153.080000
528.384583	152.680000
528.478210	152.760000
528.571899	153.200000
528.665527	153.840000
528.759216	153.860000
528.852844	154.440000
528.946533	154.360000
529.040161	154.480000
529.133850	154.160000
529.227478	154.220000
529.321167	154.420000
529.414856	154.500000
529.508484	154.700000
529.602173	154.440000
529.695801	154.440000
529.789490	153.840000
529.883057	153.740000
529.976746	153.680000
530.070374	154.080000
530.164062	153.860000
530.257690	154.280000
530.351379	154.360000
530.445007	154.060000
530.538696	153.420000
530.632324	153.800000
530.726013	153.560000
530.819641	153.420000
530.913330	153.560000
531.006958	154.180000
531.100647	154.020000
531.194275	153.820000
531.287964	153.840000
531.381592	153.420000
531.475220	153.240000
531.568848	152.780000
531.662537	152.640000
531.756226	153.120000
531.849854	153.320000
531.943542	153.260000
532.037170	152.800000
532.130859	153.380000
532.224487	152.960000
532.318176	152.820000
532.411804	153.280000
532.505432	154.220000
532.599060	153.620000
532.692749	153.620000
532.786377	154.160000
532.880066	153.200000
532.973694	152.620000
533.067383	152.860000
533.161011	152.860000
533.254639	152.540000
533.348267	152.900000
533.441956	153.140000
533.535583	153.120000
533.629272	153.120000
533.722900	152.440000
533.816589	152.500000
533.910156	152.820000
534.003845	152.400000
534.097534	152.940000
534.191162	154.040000
534.284851	154.140000
534.378479	154.000000
534.472107	154.160000
534.565735	153.760000
534.659424	154.020000
534.753052	154.120000
534.846741	153.640000
534.940369	154.420000
535.033997	154.540000
535.127625	153.760000
535.221313	154.260000
535.314941	154.560000
535.408630	153.620000
535.502197	153.660000
535.595886	153.840000
535.689514	153.500000
535.783203	154.120000
535.876831	154.880000
535.970459	154.500000
536.064087	154.180000
536.157776	154.080000
536.251404	153.660000
536.345093	153.120000
536.438721	153.640000
536.532349	154.020000
536.626038	153.840000
536.719666	154.100000
536.813293	153.660000
536.906921	153.420000
537.000610	153.580000
537.094238	153.520000
537.187866	153.280000
537.281494	153.800000
537.375183	153.880000
537.468811	153.620000
537.562439	153.740000
537.656067	153.680000
537.749756	153.880000
537.843384	154.580000
537.937012	154.960000
538.030640	154.620000
538.124329	154.580000
538.217896	154.840000
538.311584	154.420000
538.405212	154.280000
538.498901	154.920000
538.592468	155.480000
538.686157	154.880000
538.779785	154.060000
538.873413	153.800000
538.967102	153.280000
539.060730	152.400000
539.154358	152.880000
539.247986	153.300000
539.341675	153.240000
539.435242	153.380000
539.528931	153.820000
539.622559	153.360000
539.716187	154.120000
539.809814	154.280000
539.903503	154.380000
539.997070	153.940000
540.090759	154.200000
540.184387	153.520000
540.278015	153.960000
540.371643	154.200000
540.465332	154.620000
540.558899	154.540000
540.652588	154.460000
540.746216	154.160000
540.839844	154.340000
540.933472	154.440000
541.027100	154.240000
541.120728	154.200000
541.214417	154.120000
541.308044	153.880000
541.401672	153.480000
541.495300	153.560000
541.588928	153.720000
541.682617	153.560000
541.776184	153.300000
541.869873	153.620000
541.963440	153.920000
542.057129	153.640000
542.150757	153.540000
542.244385	153.260000
542.338013	152.620000
542.431641	152.240000
542.525269	152.220000
542.618958	152.940000
542.712524	153.400000
542.806213	153.740000
542.899780	154.080000
542.993469	153.780000
543.087036	152.960000
543.180725	152.560000
543.274292	152.780000
543.367981	152.960000
543.461548	153.640000
543.555237	153.820000
543.648926	154.460000
543.742493	155.200000
543.836182	154.820000
543.929749	154.580000
544.023437	154.680000
544.117004	154.660000
544.210693	154.160000
544.304260	154.420000
544.397949	153.940000
544.491516	154.340000
544.585205	154.020000
544.678772	153.600000
544.772461	153.960000
544.866028	154.180000
544.959717	154.120000
545.053284	154.020000
545.146973	154.440000
545.240540	154.060000
545.334229	154.800000
545.427795	154.700000
545.521423	154.600000
545.615051	154.380000
545.708679	155.100000
545.802307	154.640000
545.895935	154.980000
545.989624	155.960000
546.083191	155.600000
546.176880	154.900000
546.270447	154.440000
546.364136	154.540000
546.457703	153.960000
546.551331	154.340000
546.644958	154.440000
546.738586	155.080000
546.832214	154.460000
546.925842	154.100000
547.019409	154.300000
547.113098	154.020000
547.206665	153.620000
547.300354	153.540000
547.393921	153.840000
547.487549	153.800000
547.581177	153.640000
547.674805	153.680000
547.768433	153.120000
547.862061	153.080000
547.955627	152.520000
548.049316	152.860000
548.142883	153.300000
548.236572	154.080000
548.330139	154.100000
548.423767	154.320000
548.517456	154.340000
548.611023	154.320000
548.704651	153.580000
548.798279	153.720000
548.891907	154.240000
548.985474	154.020000
549.079163	153.800000
549.172729	154.100000
549.266357	153.540000
549.359985	153.080000
549.453613	152.560000
549.547180	152.440000
549.640869	152.680000
549.734436	152.760000
549.828064	153.340000
549.921631	153.780000
550.015320	153.320000
550.108887	153.940000
550.202515	153.960000
550.296143	153.400000
550.389771	153.820000
550.483337	154.260000
550.576965	153.720000
550.670593	154.360000
550.764221	154.160000
550.857849	153.500000
550.951477	153.020000
551.045105	152.580000
551.138672	152.320000
551.232300	152.160000
551.325928	152.740000
551.419556	153.320000
551.513123	153.500000
551.606750	153.160000
551.700378	153.480000
551.794006	153.340000
551.887573	153.240000
551.981201	153.720000
552.074768	153.720000
552.168457	153.380000
552.262024	154.240000
552.355652	154.120000
552.449219	154.580000
552.542847	154.740000
552.636475	154.960000
552.730103	153.880000
552.823669	153.940000
552.917297	153.060000
553.010864	152.720000
553.104553	153.280000
553.198181	153.000000
553.291748	153.320000
553.385376	153.500000
553.478943	153.660000
553.572571	153.100000
553.666199	153.420000
553.759827	152.980000
553.853394	152.540000
553.947021	152.800000
554.040588	153.060000
554.134216	153.000000
554.227783	153.800000
554.321411	154.540000
554.415039	153.720000
554.508667	153.400000
554.602234	153.820000
554.695862	152.860000
554.789429	152.580000
554.883057	153.400000
554.976624	153.420000
555.070251	153.020000
555.163818	153.300000
555.257507	153.480000
555.351074	153.200000
555.444702	154.420000
555.538330	154.420000
555.631897	154.700000
555.725525	154.680000
555.819092	154.520000
555.912720	153.300000
556.006287	153.740000
556.099915	153.520000
556.193481	153.500000
556.287109	153.980000
556.380676	153.940000
556.474304	153.840000
556.567871	154.460000
556.661499	153.840000
556.755066	153.420000
556.848694	153.540000
556.942261	153.200000
557.035889	153.100000
557.129517	153.560000
557.223145	154.240000
557.316711	154.320000
557.410339	154.820000
557.503906	154.340000
557.597473	154.320000
557.691040	154.360000
557.784668	154.460000
557.878296	154.160000
557.971863	154.460000
558.065491	154.720000
558.159058	154.120000
558.252686	155.060000
558.346252	155.780000
558.439880	155.180000
558.533447	155.060000
558.627075	155.080000
558.720642	153.980000
558.814270	153.480000
558.907837	153.800000
559.001465	153.180000
559.095032	153.960000
559.188660	154.320000
559.282227	153.860000
559.375854	154.360000
559.469360	154.440000
559.562988	154.440000
559.656555	154.140000
559.750183	154.140000
559.843750	153.880000
559.937378	154.180000
560.030945	153.400000
560.124573	0.000000
560.218140	0.000000
560.311707	0.000000
560.405334	0.000000
560.498901	0.000000
560.592529	0.000000
560.686096	0.000000
560.779724	0.000000
560.873291	0.000000
560.966858	0.000000
561.060425	0.000000
561.154053	0.000000
561.247620	0.000000
561.341248	0.000000
561.434814	0.000000
561.528381	0.000000
561.621948	0.000000
561.715576	0.000000
561.809143	0.000000
561.902771	0.000000
561.996277	0.000000
562.089905	0.000000
562.183472	0.000000
562.277100	0.000000
