Model Number: SPM-002-B   
Serial Number: 70087108
Firmware Version: 004.15.4
Exposure Time: 100000.000000us
Data Taken on: 15-01-2021 16:35:47.801
Wavelength	Amplitude
221.570786	0.000000
221.663406	0.000000
221.756027	0.000000
221.848648	0.000000
221.941269	0.000000
222.033905	0.000000
222.126526	0.000000
222.219162	0.000000
222.311798	0.000000
222.404419	0.000000
222.497055	0.000000
222.589676	0.000000
222.682312	0.000000
222.774933	0.000000
222.867569	0.000000
222.960205	0.000000
223.052841	0.000000
223.145462	0.000000
223.238098	0.000000
223.330734	0.000000
223.423386	0.000000
223.516022	0.000000
223.608658	0.000000
223.701309	0.000000
223.793945	0.000000
223.886581	0.000000
223.979218	0.000000
224.071869	0.000000
224.164505	0.000000
224.257156	0.000000
224.349792	0.000000
224.442444	0.000000
224.535095	0.000000
224.627747	0.000000
224.720398	0.000000
224.813034	0.000000
224.905685	0.000000
224.998337	153.260000
225.090988	153.300000
225.183640	153.360000
225.276291	152.880000
225.368942	153.200000
225.461594	153.700000
225.554245	153.920000
225.646912	153.540000
225.739578	153.820000
225.832230	154.600000
225.924896	153.400000
226.017548	153.720000
226.110199	154.480000
226.202866	154.000000
226.295532	153.460000
226.388184	153.520000
226.480850	152.800000
226.573517	152.400000
226.666168	152.740000
226.758835	152.900000
226.851501	153.820000
226.944183	153.980000
227.036850	153.760000
227.129517	153.740000
227.222183	153.880000
227.314850	153.440000
227.407516	154.000000
227.500198	154.740000
227.592865	154.400000
227.685532	153.840000
227.778214	153.880000
227.870880	153.840000
227.963562	153.940000
228.056229	154.620000
228.148926	154.680000
228.241592	155.200000
228.334274	154.760000
228.426956	154.480000
228.519638	154.340000
228.612305	153.860000
228.704987	153.520000
228.797668	153.660000
228.890350	153.460000
228.983032	152.920000
229.075714	154.200000
229.168396	154.080000
229.261108	153.720000
229.353790	153.740000
229.446472	153.980000
229.539169	153.560000
229.631851	153.140000
229.724533	153.460000
229.817230	153.720000
229.909912	154.520000
230.002609	154.140000
230.095306	154.340000
230.187988	154.300000
230.280685	153.840000
230.373383	152.600000
230.466095	152.820000
230.558792	153.240000
230.651474	153.080000
230.744171	153.020000
230.836868	153.160000
230.929581	153.180000
231.022278	152.980000
231.114975	153.400000
231.207672	153.680000
231.300369	154.380000
231.393082	154.300000
231.485779	154.180000
231.578506	153.800000
231.671204	153.880000
231.763916	153.440000
231.856613	153.280000
231.949326	153.460000
232.042023	153.520000
232.134735	153.400000
232.227448	153.120000
232.320160	153.360000
232.412872	153.280000
232.505585	154.240000
232.598297	154.560000
232.691010	154.980000
232.783722	154.600000
232.876450	155.160000
232.969162	154.260000
233.061874	153.700000
233.154587	153.260000
233.247314	154.000000
233.340027	153.500000
233.432739	154.000000
233.525467	154.100000
233.618179	154.480000
233.710907	153.920000
233.803635	154.300000
233.896347	153.940000
233.989090	154.760000
234.081818	154.560000
234.174545	154.720000
234.267258	154.000000
234.359985	154.220000
234.452713	153.400000
234.545441	153.500000
234.638168	153.280000
234.730896	153.880000
234.823639	153.740000
234.916367	154.180000
235.009094	154.260000
235.101822	154.320000
235.194580	153.800000
235.287308	153.960000
235.380051	153.400000
235.472778	153.520000
235.565521	153.700000
235.658249	153.720000
235.750992	153.360000
235.843719	153.380000
235.936462	153.540000
236.029205	153.240000
236.121948	153.000000
236.214691	153.620000
236.307449	154.680000
236.400192	154.160000
236.492935	154.300000
236.585678	154.860000
236.678421	154.660000
236.771164	153.820000
236.863907	154.580000
236.956665	154.600000
237.049408	156.080000
237.142151	155.500000
237.234909	156.700000
237.327652	156.320000
237.420410	156.000000
237.513153	154.680000
237.605927	154.860000
237.698669	154.080000
237.791428	153.380000
237.884186	154.180000
237.976944	153.640000
238.069702	153.760000
238.162445	153.080000
238.255203	153.480000
238.347961	153.460000
238.440720	153.700000
238.533478	153.740000
238.626266	153.760000
238.719025	153.840000
238.811783	153.300000
238.904541	153.220000
238.997314	152.880000
239.090073	152.920000
239.182831	153.420000
239.275604	154.320000
239.368362	154.020000
239.461136	154.280000
239.553909	154.120000
239.646667	153.580000
239.739441	153.060000
239.832214	153.560000
239.925003	153.740000
240.017761	154.340000
240.110535	154.980000
240.203308	154.160000
240.296082	154.240000
240.388855	153.860000
240.481628	153.680000
240.574417	153.520000
240.667191	154.060000
240.759964	153.380000
240.852737	153.540000
240.945526	153.040000
241.038315	152.880000
241.131088	153.120000
241.223877	153.620000
241.316650	153.320000
241.409439	154.060000
241.502228	153.440000
241.595001	153.760000
241.687790	153.400000
241.780579	153.440000
241.873367	153.220000
241.966141	153.740000
242.058929	153.100000
242.151718	153.520000
242.244507	154.120000
242.337311	153.400000
242.430099	153.920000
242.522903	154.240000
242.615692	154.080000
242.708481	153.760000
242.801270	154.800000
242.894073	154.460000
242.986862	154.360000
243.079651	154.760000
243.172455	154.380000
243.265244	154.000000
243.358063	153.340000
243.450867	153.600000
243.543655	153.380000
243.636459	153.920000
243.729263	154.220000
243.822067	154.640000
243.914856	154.900000
244.007660	154.960000
244.100464	154.940000
244.193268	154.440000
244.286072	154.260000
244.378876	153.600000
244.471680	153.140000
244.564499	153.440000
244.657318	154.220000
244.750122	154.840000
244.842926	154.300000
244.935745	154.840000
245.028549	154.280000
245.121368	153.620000
245.214172	152.940000
245.306992	153.760000
245.399796	153.240000
245.492615	153.360000
245.585434	153.140000
245.678253	153.160000
245.771072	152.820000
245.863892	153.340000
245.956711	153.300000
246.049530	153.640000
246.142349	153.360000
246.235168	153.260000
246.327988	153.460000
246.420807	153.500000
246.513626	153.320000
246.606445	153.620000
246.699280	153.740000
246.792099	153.520000
246.884918	153.220000
246.977753	153.060000
247.070587	153.380000
247.163422	153.120000
247.256241	153.120000
247.349075	153.580000
247.441895	153.920000
247.534729	153.660000
247.627563	153.920000
247.720383	154.620000
247.813217	154.020000
247.906052	153.980000
247.998886	154.240000
248.091736	154.160000
248.184570	153.180000
248.277405	153.400000
248.370239	154.160000
248.463074	154.740000
248.555908	155.020000
248.648743	155.080000
248.741592	155.340000
248.834427	154.420000
248.927261	153.260000
249.020111	153.400000
249.112946	154.300000
249.205795	153.820000
249.298630	153.940000
249.391495	154.380000
249.484344	154.240000
249.577179	153.940000
249.670029	154.400000
249.762878	154.980000
249.855728	155.000000
249.948563	154.900000
250.041412	153.960000
250.134262	154.080000
250.227112	154.280000
250.319962	154.480000
250.412827	154.640000
250.505692	154.880000
250.598541	155.020000
250.691391	154.280000
250.784241	154.060000
250.877106	154.280000
250.969955	154.200000
251.062805	154.300000
251.155670	154.720000
251.248520	154.300000
251.341385	154.360000
251.434235	154.300000
251.527100	153.960000
251.619965	153.600000
251.712814	154.580000
251.805695	154.520000
251.898560	154.820000
251.991425	154.940000
252.084290	154.900000
252.177155	153.840000
252.270020	153.460000
252.362885	153.420000
252.455750	153.180000
252.548615	153.160000
252.641479	153.200000
252.734360	153.280000
252.827240	153.000000
252.920105	153.600000
253.012970	153.460000
253.105850	153.680000
253.198715	153.540000
253.291595	153.980000
253.384460	152.980000
253.477341	152.900000
253.570221	153.540000
253.663086	153.220000
253.755966	153.540000
253.848846	154.020000
253.941727	154.340000
254.034592	153.700000
254.127472	153.280000
254.220367	153.120000
254.313248	153.260000
254.406128	152.680000
254.499008	153.500000
254.591904	154.780000
254.684784	155.140000
254.777664	154.980000
254.870544	155.200000
254.963440	154.620000
255.056335	154.320000
255.149216	153.880000
255.242111	154.580000
255.334991	154.860000
255.427887	155.020000
255.520767	154.940000
255.613663	155.060000
255.706558	154.240000
255.799438	154.060000
255.892334	153.680000
255.985229	153.500000
256.078125	152.880000
256.171021	153.080000
256.263916	153.440000
256.356812	153.780000
256.449707	154.220000
256.542603	154.220000
256.635498	154.680000
256.728394	154.580000
256.821289	154.380000
256.914215	154.420000
257.007080	154.680000
257.100006	154.700000
257.192932	155.100000
257.285828	155.300000
257.378723	154.620000
257.471619	154.380000
257.564545	153.500000
257.657440	153.400000
257.750336	153.760000
257.843262	153.900000
257.936157	155.300000
258.029053	156.000000
258.121979	155.980000
258.214874	155.220000
258.307800	155.140000
258.400696	153.940000
258.493622	153.660000
258.586517	152.740000
258.679443	153.460000
258.772339	153.080000
258.865265	153.060000
258.958160	152.580000
259.051086	153.740000
259.144012	153.340000
259.236938	154.440000
259.329834	154.540000
259.422791	154.820000
259.515717	154.000000
259.608612	153.780000
259.701538	153.320000
259.794464	153.320000
259.887390	153.280000
259.980316	153.340000
260.073212	153.080000
260.166138	152.300000
260.259064	152.640000
260.351990	153.180000
260.444916	153.380000
260.537842	154.060000
260.630768	155.140000
260.723694	154.680000
260.816620	154.380000
260.909546	154.120000
261.002472	153.600000
261.095398	152.760000
261.188354	152.780000
261.281281	152.360000
261.374207	152.560000
261.467133	153.140000
261.560089	153.600000
261.653015	153.520000
261.745972	154.380000
261.838867	154.720000
261.931824	154.840000
262.024780	154.600000
262.117706	155.120000
262.210663	155.140000
262.303589	155.040000
262.396515	154.780000
262.489471	155.620000
262.582397	155.320000
262.675354	154.440000
262.768280	154.360000
262.861237	154.440000
262.954163	154.540000
263.047119	154.700000
263.140045	154.800000
263.233002	154.760000
263.325958	154.820000
263.418884	153.840000
263.511841	153.620000
263.604797	153.640000
263.697723	153.840000
263.790680	153.580000
263.883636	154.220000
263.976593	154.140000
264.069550	154.520000
264.162476	154.140000
264.255463	154.280000
264.348419	153.900000
264.441376	154.140000
264.534332	153.520000
264.627289	153.740000
264.720245	154.060000
264.813202	153.740000
264.906158	153.860000
264.999115	154.700000
265.092072	154.640000
265.185028	154.860000
265.277985	155.340000
265.370941	155.220000
265.463898	154.480000
265.556854	154.280000
265.649811	153.220000
265.742798	153.140000
265.835754	153.060000
265.928711	153.960000
266.021667	154.320000
266.114655	155.080000
266.207611	155.320000
266.300568	154.840000
266.393585	153.940000
266.486511	153.920000
266.579498	152.780000
266.672485	152.440000
266.765442	152.480000
266.858429	153.340000
266.951385	152.820000
267.044342	153.640000
267.137329	153.780000
267.230316	153.940000
267.323273	153.300000
267.416260	154.140000
267.509216	153.720000
267.602203	153.840000
267.695160	154.500000
267.788147	154.780000
267.881134	154.000000
267.974091	154.460000
268.067078	153.980000
268.160065	153.460000
268.253052	153.240000
268.346008	153.440000
268.438995	153.140000
268.531982	153.560000
268.624969	153.480000
268.717987	153.840000
268.810944	153.820000
268.903961	154.260000
268.996948	153.700000
269.089905	154.260000
269.182892	154.180000
269.275879	154.240000
269.368866	153.460000
269.461853	154.200000
269.554871	153.820000
269.647858	153.840000
269.740845	154.300000
269.833832	154.960000
269.926819	154.200000
270.019806	154.520000
270.112793	153.980000
270.205811	153.980000
270.298798	153.520000
270.391785	154.320000
270.484772	154.080000
270.577789	154.280000
270.670776	153.480000
270.763763	153.540000
270.856750	153.160000
270.949768	152.640000
271.042786	152.740000
271.135773	153.340000
271.228790	153.860000
271.321808	153.600000
271.414795	153.740000
271.507782	153.640000
271.600800	153.220000
271.693817	152.960000
271.786804	153.520000
271.879822	153.880000
271.972809	153.740000
272.065826	154.140000
272.158844	153.460000
272.251831	153.820000
272.344849	153.720000
272.437866	153.580000
272.530853	153.380000
272.623871	154.180000
272.716888	152.980000
272.809906	153.100000
272.902893	153.200000
272.995911	152.720000
273.088928	152.380000
273.181946	152.880000
273.274963	152.700000
273.367981	152.800000
273.460999	153.380000
273.554047	153.840000
273.647003	154.520000
273.740051	154.500000
273.833069	154.860000
273.926086	154.800000
274.019135	154.540000
274.112152	154.140000
274.205170	154.220000
274.298187	154.240000
274.391205	153.800000
274.484222	153.860000
274.577240	153.760000
274.670258	153.720000
274.763306	153.520000
274.856323	154.140000
274.949341	154.040000
275.042358	154.340000
275.135406	154.260000
275.228424	154.320000
275.321442	154.020000
275.414490	153.920000
275.507507	154.080000
275.600525	154.700000
275.693573	154.520000
275.786591	154.340000
275.879669	154.640000
275.972656	154.120000
276.065735	153.660000
276.158752	154.300000
276.251801	155.140000
276.344818	155.320000
276.437866	155.700000
276.530884	155.660000
276.623932	154.880000
276.716980	154.960000
276.809998	154.840000
276.903046	154.360000
276.996094	155.080000
277.089111	155.680000
277.182159	155.920000
277.275208	155.360000
277.368256	155.600000
277.461304	155.240000
277.554321	154.460000
277.647369	154.120000
277.740417	154.260000
277.833466	153.880000
277.926514	153.340000
278.019562	154.100000
278.112610	153.560000
278.205688	153.920000
278.298706	154.360000
278.391785	154.700000
278.484833	154.380000
278.577881	154.360000
278.670929	154.580000
278.763977	154.540000
278.857025	154.560000
278.950073	154.700000
279.043121	154.600000
279.136169	154.220000
279.229248	153.860000
279.322296	154.160000
279.415344	153.860000
279.508392	153.960000
279.601440	154.120000
279.694519	154.360000
279.787567	154.020000
279.880615	153.800000
279.973694	153.200000
280.066742	152.880000
280.159790	153.080000
280.252869	152.500000
280.345917	152.740000
280.438995	153.280000
280.532074	153.600000
280.625122	153.480000
280.718201	154.520000
280.811279	154.440000
280.904327	154.320000
280.997406	154.280000
281.090454	154.140000
281.183533	153.260000
281.276581	153.540000
281.369659	153.480000
281.462738	153.680000
281.555786	153.820000
281.648865	154.100000
281.741943	153.920000
281.835022	154.460000
281.928070	154.100000
282.021149	154.000000
282.114227	154.100000
282.207306	154.020000
282.300385	154.140000
282.393433	154.440000
282.486511	154.480000
282.579590	154.780000
282.672668	155.380000
282.765747	154.620000
282.858856	154.280000
282.951904	154.200000
283.045013	154.140000
283.138062	153.880000
283.231171	154.360000
283.324249	154.480000
283.417328	154.780000
283.510406	154.320000
283.603485	153.980000
283.696564	153.600000
283.789642	153.600000
283.882751	153.200000
283.975830	153.820000
284.068909	153.660000
284.161987	154.540000
284.255066	154.240000
284.348175	154.640000
284.441254	154.300000
284.534332	154.780000
284.627441	153.900000
284.720520	153.580000
284.813599	153.320000
284.906708	153.400000
284.999786	152.880000
285.092896	152.480000
285.185974	153.820000
285.279053	153.360000
285.372192	153.280000
285.465240	154.140000
285.558380	154.460000
285.651459	153.600000
285.744568	154.900000
285.837677	154.820000
285.930756	154.800000
286.023865	155.100000
286.116943	154.740000
286.210052	154.420000
286.303162	154.140000
286.396240	153.540000
286.489349	153.460000
286.582458	154.000000
286.675568	153.360000
286.768646	153.720000
286.861755	154.440000
286.954865	155.120000
287.047974	154.600000
287.141083	154.640000
287.234161	154.380000
287.327271	153.820000
287.420380	154.140000
287.513519	154.300000
287.606598	154.440000
287.699738	154.600000
287.792816	154.360000
287.885956	153.740000
287.979034	153.820000
288.072174	153.960000
288.165283	154.020000
288.258392	154.360000
288.351501	153.640000
288.444611	153.740000
288.537720	153.700000
288.630859	153.220000
288.723969	153.320000
288.817078	154.260000
288.910187	154.080000
289.003296	153.460000
289.096436	153.480000
289.189545	153.340000
289.282654	152.520000
289.375763	152.980000
289.468903	153.780000
289.562012	154.140000
289.655121	153.800000
289.748260	154.320000
289.841400	154.560000
289.934509	154.120000
290.027649	154.440000
290.120728	154.600000
290.213898	154.500000
290.306976	154.080000
290.400146	154.540000
290.493256	153.840000
290.586395	154.340000
290.679535	154.400000
290.772644	154.280000
290.865784	153.220000
290.958893	153.220000
291.052032	152.380000
291.145172	152.380000
291.238281	152.180000
291.331421	152.740000
291.424561	153.360000
291.517670	153.320000
291.610809	153.540000
291.703949	153.480000
291.797089	153.700000
291.890228	153.120000
291.983337	153.360000
292.076477	152.800000
292.169617	153.320000
292.262756	153.080000
292.355927	153.420000
292.449036	153.440000
292.542206	153.820000
292.635315	153.880000
292.728485	154.120000
292.821625	153.620000
292.914764	154.560000
293.007904	154.240000
293.101044	153.980000
293.194183	153.680000
293.287323	154.120000
293.380463	153.460000
293.473602	153.240000
293.566742	153.640000
293.659882	154.120000
293.753021	154.280000
293.846191	154.220000
293.939331	154.060000
294.032471	153.620000
294.125610	153.360000
294.218781	153.540000
294.311920	154.060000
294.405060	154.440000
294.498230	154.380000
294.591370	154.260000
294.684540	153.620000
294.777679	152.740000
294.870850	153.300000
294.963959	153.540000
295.057159	153.380000
295.150299	153.640000
295.243469	153.840000
295.336609	152.920000
295.429779	152.960000
295.522919	153.440000
295.616089	153.540000
295.709229	153.980000
295.802399	154.620000
295.895569	154.220000
295.988708	153.940000
296.081879	154.140000
296.175018	153.520000
296.268188	153.280000
296.361359	153.800000
296.454529	153.980000
296.547668	153.640000
296.640839	154.200000
296.734009	153.980000
296.827179	153.840000
296.920319	154.060000
297.013519	153.760000
297.106659	153.760000
297.199860	153.620000
297.292999	153.500000
297.386200	153.120000
297.479309	153.240000
297.572510	152.940000
297.665680	152.960000
297.758850	153.040000
297.852020	153.200000
297.945190	153.280000
298.038361	152.800000
298.131531	154.100000
298.224701	153.760000
298.317871	153.400000
298.411072	153.160000
298.504242	153.260000
298.597412	152.360000
298.690582	152.860000
298.783752	153.060000
298.876923	153.720000
298.970093	154.100000
299.063293	154.400000
299.156464	154.760000
299.249634	155.040000
299.342834	154.940000
299.436005	155.280000
299.529205	154.820000
299.622345	154.580000
299.715576	153.740000
299.808716	153.340000
299.901917	153.240000
299.995117	153.760000
300.088287	153.740000
300.181488	153.740000
300.274658	153.820000
300.367828	153.920000
300.461029	153.480000
300.554199	153.680000
300.647400	154.140000
300.740601	154.700000
300.833771	154.220000
300.926971	154.560000
301.020142	153.980000
301.113342	153.740000
301.206512	153.540000
301.299713	154.360000
301.392914	153.940000
301.486084	154.240000
301.579285	154.280000
301.672516	154.520000
301.765686	153.700000
301.858887	153.920000
301.952057	153.780000
302.045288	153.800000
302.138458	153.560000
302.231659	153.760000
302.324860	153.660000
302.418060	153.400000
302.511261	153.520000
302.604462	153.620000
302.697662	153.320000
302.790863	153.240000
302.884064	152.940000
302.977264	153.140000
303.070465	153.160000
303.163666	153.920000
303.256866	154.160000
303.350067	154.360000
303.443268	154.260000
303.536469	154.280000
303.629669	153.720000
303.722870	153.740000
303.816071	153.740000
303.909271	153.980000
304.002472	153.020000
304.095673	152.840000
304.188934	152.220000
304.282104	153.100000
304.375336	152.760000
304.468506	153.200000
304.561768	153.200000
304.654968	154.080000
304.748169	153.220000
304.841370	153.180000
304.934601	153.520000
305.027802	153.280000
305.121002	152.720000
305.214233	152.820000
305.307434	152.780000
305.400665	153.240000
305.493866	153.380000
305.587097	153.600000
305.680298	153.380000
305.773499	154.300000
305.866730	154.020000
305.959930	154.700000
306.053162	154.820000
306.146393	154.680000
306.239594	153.600000
306.332825	153.380000
306.426025	153.420000
306.519287	152.940000
306.612488	153.400000
306.705719	153.420000
306.798920	153.400000
306.892181	152.560000
306.985352	152.400000
307.078613	151.840000
307.171844	152.340000
307.265045	151.780000
307.358276	151.720000
307.451508	152.120000
307.544739	152.720000
307.637970	152.020000
307.731201	152.320000
307.824402	153.060000
307.917633	153.400000
308.010864	153.860000
308.104095	154.660000
308.197327	154.960000
308.290558	154.880000
308.383789	154.360000
308.477020	153.680000
308.570251	153.000000
308.663483	152.700000
308.756714	152.480000
308.849976	152.620000
308.943176	153.220000
309.036438	153.000000
309.129639	153.160000
309.222900	153.440000
309.316101	153.620000
309.409393	153.040000
309.502625	153.360000
309.595856	153.580000
309.689087	153.480000
309.782318	153.360000
309.875580	153.600000
309.968811	153.720000
310.062042	153.180000
310.155273	152.960000
310.248535	153.200000
310.341766	153.140000
310.434998	152.980000
310.528259	153.140000
310.621490	153.460000
310.714722	152.920000
310.807983	152.860000
310.901215	152.980000
310.994476	153.040000
311.087708	152.600000
311.181000	153.160000
311.274200	152.960000
311.367462	152.980000
311.460693	152.880000
311.553986	153.540000
311.647186	153.560000
311.740479	154.420000
311.833710	153.960000
311.926971	153.920000
312.020203	153.280000
312.113464	153.040000
312.206726	152.060000
312.299957	152.880000
312.393219	153.080000
312.486481	153.300000
312.579712	153.080000
312.672974	153.120000
312.766235	152.740000
312.859497	152.680000
312.952759	152.300000
313.045990	153.200000
313.139252	152.900000
313.232513	153.020000
313.325775	153.220000
313.419037	153.240000
313.512299	152.380000
313.605530	153.260000
313.698822	153.280000
313.792053	153.300000
313.885345	153.480000
313.978577	153.640000
314.071869	152.740000
314.165131	152.860000
314.258392	153.220000
314.351654	153.220000
314.444916	152.620000
314.538177	153.520000
314.631439	153.840000
314.724701	153.340000
314.817993	153.240000
314.911255	153.800000
315.004517	153.220000
315.097778	152.820000
315.191040	153.280000
315.284302	153.540000
315.377594	153.500000
315.470856	153.680000
315.564117	153.160000
315.657379	152.460000
315.750671	152.180000
315.843933	152.380000
315.937195	151.820000
316.030518	152.020000
316.123749	152.120000
316.217041	152.960000
316.310303	152.940000
316.403595	153.580000
316.496857	153.920000
316.590149	154.400000
316.683411	153.520000
316.776703	153.200000
316.869965	153.340000
316.963257	153.060000
317.056519	152.140000
317.149811	152.020000
317.243073	152.160000
317.336365	152.260000
317.429626	152.660000
317.522919	153.340000
317.616180	153.860000
317.709473	153.500000
317.802765	152.980000
317.896027	152.780000
317.989319	153.200000
318.082611	153.000000
318.175873	153.100000
318.269165	153.180000
318.362488	153.000000
318.455750	152.480000
318.549042	152.800000
318.642303	153.520000
318.735626	153.260000
318.828888	153.300000
318.922211	153.400000
319.015472	153.820000
319.108765	153.160000
319.202057	152.980000
319.295349	153.300000
319.388641	153.060000
319.481934	152.460000
319.575226	152.480000
319.668518	153.260000
319.761810	153.500000
319.855103	153.640000
319.948395	154.020000
320.041687	154.260000
320.134979	153.980000
320.228271	153.520000
320.321564	153.080000
320.414856	152.660000
320.508148	152.240000
320.601440	152.340000
320.694763	152.500000
320.788025	153.500000
320.881348	153.620000
320.974640	153.440000
321.067963	153.000000
321.161224	152.720000
321.254547	152.020000
321.347839	152.620000
321.441162	152.480000
321.534454	152.980000
321.627747	152.940000
321.721069	153.660000
321.814362	153.580000
321.907654	154.100000
322.000946	154.120000
322.094269	154.560000
322.187561	154.080000
322.280884	153.980000
322.374176	154.120000
322.467468	154.240000
322.560791	154.380000
322.654083	154.600000
322.747406	154.480000
322.840698	154.660000
322.934021	155.100000
323.027344	155.200000
323.120636	155.120000
323.213959	155.140000
323.307251	154.560000
323.400574	154.080000
323.493866	153.500000
323.587219	153.440000
323.680511	153.220000
323.773834	153.460000
323.867157	153.300000
323.960449	153.240000
324.053772	152.740000
324.147095	152.820000
324.240387	153.380000
324.333710	153.420000
324.427032	153.820000
324.520355	154.140000
324.613647	153.760000
324.706970	153.380000
324.800293	153.500000
324.893616	153.400000
324.986938	153.760000
325.080231	153.820000
325.173553	154.080000
325.266876	154.660000
325.360199	154.580000
325.453522	154.100000
325.546875	153.900000
325.640167	153.880000
325.733521	153.580000
325.826813	154.000000
325.920166	153.960000
326.013489	154.020000
326.106812	153.240000
326.200134	152.800000
326.293457	152.100000
326.386780	152.140000
326.480103	152.120000
326.573425	152.280000
326.666748	152.400000
326.760071	152.800000
326.853424	153.020000
326.946747	153.160000
327.040070	153.940000
327.133392	153.460000
327.226715	152.800000
327.320068	152.380000
327.413391	152.960000
327.506714	152.080000
327.600037	152.340000
327.693390	152.760000
327.786713	152.640000
327.880066	152.400000
327.973358	153.180000
328.066742	153.840000
328.160034	154.100000
328.253418	154.960000
328.346710	154.860000
328.440063	154.440000
328.533417	153.740000
328.626740	154.020000
328.720093	153.480000
328.813416	153.060000
328.906769	152.960000
329.000092	153.300000
329.093445	153.420000
329.186768	153.480000
329.280121	154.420000
329.373444	154.540000
329.466797	154.400000
329.560120	153.920000
329.653473	153.840000
329.746796	152.840000
329.840149	152.680000
329.933502	152.620000
330.026825	152.680000
330.120178	152.880000
330.213562	153.220000
330.306854	153.180000
330.400238	153.260000
330.493561	152.840000
330.586945	153.080000
330.680237	153.480000
330.773621	153.440000
330.866974	153.400000
330.960327	153.660000
331.053680	153.340000
331.147003	153.060000
331.240356	153.500000
331.333710	153.580000
331.427063	153.500000
331.520416	153.440000
331.613770	153.180000
331.707123	153.160000
331.800476	153.200000
331.893829	153.960000
331.987152	154.100000
332.080505	154.280000
332.173859	154.260000
332.267212	153.720000
332.360565	153.080000
332.453918	152.940000
332.547333	152.740000
332.640656	152.700000
332.734039	153.220000
332.827362	153.180000
332.920746	153.640000
333.014069	154.120000
333.107452	154.640000
333.200806	154.500000
333.294159	154.820000
333.387543	154.260000
333.480896	153.580000
333.574249	153.140000
333.667603	152.760000
333.760956	152.900000
333.854340	152.780000
333.947693	153.160000
334.041046	153.140000
334.134430	153.860000
334.227783	153.380000
334.321136	153.480000
334.414520	153.040000
334.507874	153.020000
334.601227	152.840000
334.694611	152.980000
334.787964	153.300000
334.881348	153.940000
334.974701	153.840000
335.068085	153.480000
335.161438	153.540000
335.254822	153.360000
335.348175	153.320000
335.441559	153.120000
335.534943	153.940000
335.628296	153.900000
335.721680	153.540000
335.815033	153.600000
335.908417	153.840000
336.001770	153.680000
336.095154	153.560000
336.188538	153.800000
336.281891	153.120000
336.375275	152.720000
336.468658	152.160000
336.562012	152.560000
336.655396	152.940000
336.748779	153.560000
336.842133	154.280000
336.935516	154.840000
337.028900	154.200000
337.122284	153.820000
337.215637	153.860000
337.309021	153.480000
337.402435	152.840000
337.495789	152.900000
337.589203	153.020000
337.682526	152.780000
337.775940	153.100000
337.869324	153.340000
337.962708	153.280000
338.056091	153.700000
338.149475	153.220000
338.242859	153.080000
338.336243	152.760000
338.429626	153.040000
338.523010	152.700000
338.616394	152.880000
338.709778	153.080000
338.803162	153.340000
338.896545	153.500000
338.989929	153.000000
339.083313	153.180000
339.176697	152.840000
339.270081	152.640000
339.363464	152.760000
339.456848	153.480000
339.550232	153.220000
339.643616	153.160000
339.737030	153.400000
339.830383	153.240000
339.923828	153.400000
340.017181	153.600000
340.110596	153.880000
340.203949	153.500000
340.297363	152.920000
340.390778	152.760000
340.484161	152.700000
340.577545	152.200000
340.670959	152.660000
340.764343	153.100000
340.857727	153.160000
340.951111	152.880000
341.044525	153.260000
341.137909	152.960000
341.231293	152.780000
341.324707	152.300000
341.418091	153.700000
341.511505	153.880000
341.604889	154.080000
341.698303	154.380000
341.791687	154.520000
341.885071	153.280000
341.978485	152.820000
342.071899	153.040000
342.165283	153.060000
342.258698	153.320000
342.352081	153.800000
342.445496	154.480000
342.538879	154.260000
342.632324	153.760000
342.725708	153.720000
342.819122	153.480000
342.912506	152.980000
343.005920	152.860000
343.099335	154.160000
343.192719	154.020000
343.286133	154.180000
343.379547	154.400000
343.472931	154.580000
343.566345	153.440000
343.659760	153.560000
343.753143	153.040000
343.846558	152.580000
343.939972	152.420000
344.033386	153.240000
344.126770	152.820000
344.220184	153.440000
344.313599	154.100000
344.407043	154.160000
344.500427	153.360000
344.593872	154.160000
344.687225	153.700000
344.780670	153.080000
344.874054	153.280000
344.967499	153.540000
345.060913	153.220000
345.154327	153.220000
345.247742	153.100000
345.341156	152.740000
345.434570	152.280000
345.527985	151.980000
345.621399	152.120000
345.714813	152.240000
345.808228	152.580000
345.901642	152.720000
345.995056	152.320000
346.088470	152.560000
346.181885	152.800000
346.275299	152.440000
346.368713	152.380000
346.462128	152.620000
346.555573	152.640000
346.648987	152.560000
346.742401	152.560000
346.835815	152.920000
346.929260	152.620000
347.022644	152.360000
347.116119	152.820000
347.209503	153.260000
347.302948	154.200000
347.396362	155.000000
347.489807	155.060000
347.583221	155.320000
347.676636	154.860000
347.770050	153.620000
347.863495	153.140000
347.956909	153.200000
348.050323	152.480000
348.143768	152.840000
348.237183	152.980000
348.330597	153.420000
348.424042	153.780000
348.517456	154.200000
348.610901	154.240000
348.704315	153.880000
348.797760	153.220000
348.891174	152.220000
348.984619	151.800000
349.078033	152.020000
349.171448	152.760000
349.264923	152.820000
349.358337	153.260000
349.451782	153.100000
349.545197	152.480000
349.638641	151.940000
349.732086	151.840000
349.825500	152.560000
349.918945	152.420000
350.012390	153.080000
350.105804	153.700000
350.199249	153.940000
350.292664	153.780000
350.386108	154.180000
350.479553	154.360000
350.572968	153.960000
350.666412	154.040000
350.759857	153.620000
350.853302	153.920000
350.946716	153.120000
351.040161	153.080000
351.133606	153.160000
351.227081	152.980000
351.320465	153.480000
351.413940	153.760000
351.507355	153.860000
351.600830	154.060000
351.694244	153.940000
351.787720	153.680000
351.881104	153.880000
351.974579	154.080000
352.067993	154.720000
352.161469	154.940000
352.254883	154.280000
352.348358	153.940000
352.441803	153.600000
352.535248	152.940000
352.628693	153.240000
352.722137	153.020000
352.815582	153.460000
352.909027	153.700000
353.002472	153.720000
353.095917	153.900000
353.189362	154.420000
353.282806	154.200000
353.376251	153.820000
353.469696	153.180000
353.563141	153.400000
353.656586	152.780000
353.750061	152.180000
353.843475	152.340000
353.936981	153.220000
354.030396	152.740000
354.123871	153.060000
354.217285	154.040000
354.310760	154.240000
354.404175	153.880000
354.497681	153.380000
354.591095	153.420000
354.684570	152.300000
354.777985	152.120000
354.871490	151.740000
354.964935	152.560000
355.058380	152.640000
355.151855	152.700000
355.245300	153.320000
355.338745	153.980000
355.432220	153.640000
355.525665	153.440000
355.619110	154.000000
355.712585	153.260000
355.806030	152.900000
355.899475	152.580000
355.992950	152.920000
356.086426	153.180000
356.179871	153.260000
356.273346	153.260000
356.366791	153.740000
356.460266	153.860000
356.553711	153.100000
356.647186	153.440000
356.740631	153.100000
356.834106	152.660000
356.927551	152.520000
357.021027	152.920000
357.114471	152.680000
357.207947	153.140000
357.301422	153.540000
357.394867	153.480000
357.488342	153.780000
357.581818	154.060000
357.675262	154.320000
357.768738	153.820000
357.862213	153.340000
357.955658	153.320000
358.049133	152.820000
358.142609	152.440000
358.236053	152.280000
358.329529	152.620000
358.423035	152.660000
358.516449	152.360000
358.609955	152.960000
358.703400	153.920000
358.796906	153.920000
358.890350	153.340000
358.983826	154.060000
359.077271	153.240000
359.170776	153.140000
359.264221	153.040000
359.357727	153.560000
359.451172	153.600000
359.544647	153.940000
359.638123	153.540000
359.731598	154.020000
359.825073	153.860000
359.918549	154.120000
360.012024	154.020000
360.105499	153.480000
360.198975	153.160000
360.292450	153.340000
360.385925	152.640000
360.479401	152.360000
360.572876	153.200000
360.666351	153.620000
360.759857	153.220000
360.853302	153.520000
360.946808	153.460000
361.040253	152.980000
361.133759	152.440000
361.227203	152.960000
361.320709	152.520000
361.414154	152.720000
361.507660	153.040000
361.601105	153.740000
361.694641	154.040000
361.788086	154.000000
361.881592	154.740000
361.975067	154.100000
362.068542	154.080000
362.162018	153.820000
362.255524	153.880000
362.348999	153.360000
362.442474	153.940000
362.535950	153.100000
362.629456	152.840000
362.722931	153.240000
362.816406	153.440000
362.909882	154.000000
363.003387	154.120000
363.096863	154.720000
363.190338	154.540000
363.283875	154.420000
363.377319	153.840000
363.470825	154.360000
363.564301	153.680000
363.657806	153.860000
363.751282	153.400000
363.844788	154.380000
363.938232	153.640000
364.031769	154.180000
364.125214	154.360000
364.218750	155.280000
364.312225	153.760000
364.405731	154.140000
364.499207	153.540000
364.592712	153.240000
364.686188	152.860000
364.779694	153.060000
364.873169	153.100000
364.966675	153.300000
365.060150	153.100000
365.153656	153.260000
365.247131	153.600000
365.340637	153.740000
365.434143	154.220000
365.527618	154.420000
365.621155	153.540000
365.714600	153.660000
365.808136	153.760000
365.901611	152.480000
365.995117	152.120000
366.088593	152.320000
366.182129	151.920000
366.275604	151.900000
366.369110	152.700000
366.462585	152.900000
366.556122	153.680000
366.649567	153.920000
366.743103	153.580000
366.836609	153.200000
366.930115	153.680000
367.023590	153.640000
367.117096	153.360000
367.210602	153.720000
367.304108	154.220000
367.397614	154.340000
367.491119	154.260000
367.584595	154.520000
367.678101	154.740000
367.771606	154.300000
367.865112	154.020000
367.958649	153.420000
368.052124	153.280000
368.145660	152.820000
368.239136	153.420000
368.332672	153.460000
368.426147	153.980000
368.519684	153.800000
368.613159	154.160000
368.706696	153.700000
368.800171	153.480000
368.893707	153.360000
368.987183	153.320000
369.080719	153.220000
369.174225	153.220000
369.267731	153.240000
369.361237	153.100000
369.454742	153.380000
369.548248	153.920000
369.641754	153.560000
369.735260	153.600000
369.828766	153.000000
369.922272	153.380000
370.015808	152.600000
370.109314	152.620000
370.202820	152.340000
370.296356	153.400000
370.389832	153.120000
370.483368	152.840000
370.576874	153.140000
370.670410	153.440000
370.763885	152.400000
370.857422	152.200000
370.950928	152.280000
371.044464	152.900000
371.137939	153.240000
371.231476	153.900000
371.324982	154.640000
371.418518	154.900000
371.512024	154.400000
371.605560	153.920000
371.699066	154.240000
371.792572	153.740000
371.886108	153.920000
371.979614	153.940000
372.073120	154.440000
372.166656	153.880000
372.260162	154.020000
372.353668	153.520000
372.447205	152.960000
372.540710	152.740000
372.634277	152.680000
372.727753	152.620000
372.821320	153.040000
372.914795	152.920000
373.008362	152.680000
373.101837	152.960000
373.195404	152.660000
373.288879	152.460000
373.382446	153.760000
373.475922	154.060000
373.569489	154.720000
373.662964	155.300000
373.756531	155.520000
373.850037	155.120000
373.943573	154.580000
374.037109	153.400000
374.130615	153.380000
374.224152	153.140000
374.317657	152.820000
374.411194	153.800000
374.504730	153.880000
374.598236	153.440000
374.691772	153.340000
374.785309	153.220000
374.878815	152.340000
374.972351	152.980000
375.065887	153.120000
375.159454	153.880000
375.252930	153.580000
375.346497	154.220000
375.440002	154.580000
375.533569	154.480000
375.627045	153.640000
375.720612	154.240000
375.814117	154.340000
375.907684	153.880000
376.001160	153.520000
376.094727	153.340000
376.188232	153.880000
376.281799	153.560000
376.375336	153.520000
376.468872	154.320000
376.562408	154.860000
376.655914	154.160000
376.749451	154.280000
376.842987	154.400000
376.936523	154.160000
377.030060	154.180000
377.123596	154.260000
377.217133	153.660000
377.310669	153.760000
377.404205	153.900000
377.497772	154.200000
377.591278	154.120000
377.684845	155.120000
377.778351	155.240000
377.871918	154.920000
377.965424	154.220000
378.058990	154.060000
378.152496	153.700000
378.246063	153.520000
378.339569	154.020000
378.433136	154.180000
378.526642	154.460000
378.620209	154.140000
378.713745	153.660000
378.807312	153.680000
378.900848	153.440000
378.994385	153.240000
379.087921	152.620000
379.181458	153.080000
379.274994	152.200000
379.368530	152.140000
379.462097	152.460000
379.555634	153.480000
379.649170	152.780000
379.742706	152.880000
379.836273	153.340000
379.929810	153.020000
380.023376	152.420000
380.116882	152.760000
380.210449	152.800000
380.303986	152.280000
380.397552	151.680000
380.491058	151.720000
380.584656	151.400000
380.678162	151.940000
380.771729	152.020000
380.865265	153.620000
380.958832	154.220000
381.052368	154.820000
381.145935	154.980000
381.239471	155.740000
381.333008	154.860000
381.426575	154.320000
381.520111	154.520000
381.613647	154.460000
381.707214	153.920000
381.800751	153.540000
381.894318	154.160000
381.987854	153.500000
382.081421	153.060000
382.174988	153.240000
382.268524	153.300000
382.362091	152.700000
382.455627	153.460000
382.549194	153.340000
382.642731	152.620000
382.736298	152.380000
382.829834	152.240000
382.923401	152.640000
383.016937	153.060000
383.110504	153.580000
383.204041	154.320000
383.297607	154.800000
383.391174	153.800000
383.484741	154.500000
383.578278	153.920000
383.671844	153.160000
383.765411	152.380000
383.858948	153.100000
383.952515	152.000000
384.046051	152.760000
384.139618	153.540000
384.233185	154.060000
384.326721	153.800000
384.420288	154.720000
384.513855	154.820000
384.607422	154.760000
384.700989	154.960000
384.794525	154.540000
384.888123	154.200000
384.981659	154.160000
385.075226	154.020000
385.168762	153.860000
385.262360	154.000000
385.355896	153.040000
385.449463	152.880000
385.542999	152.800000
385.636597	153.140000
385.730164	153.180000
385.823730	153.400000
385.917267	153.140000
386.010834	153.440000
386.104401	153.760000
386.197968	154.120000
386.291534	154.840000
386.385101	155.080000
386.478668	155.040000
386.572235	154.320000
386.665802	153.880000
386.759338	153.460000
386.852905	152.940000
386.946472	152.500000
387.040070	152.760000
387.133606	152.680000
387.227203	152.300000
387.320740	152.860000
387.414337	152.800000
387.507874	152.600000
387.601471	152.700000
387.695007	152.800000
387.788605	152.680000
387.882141	152.920000
387.975739	153.000000
388.069275	152.760000
388.162872	153.080000
388.256439	152.940000
388.350037	152.720000
388.443604	152.620000
388.537170	152.760000
388.630737	153.460000
388.724304	153.900000
388.817871	154.200000
388.911438	154.360000
389.005005	155.000000
389.098602	154.960000
389.192169	154.820000
389.285736	155.220000
389.379333	154.940000
389.472870	154.440000
389.566467	153.960000
389.660034	153.780000
389.753632	152.960000
389.847168	153.460000
389.940765	153.560000
390.034332	153.820000
390.127930	153.340000
390.221466	153.380000
390.315063	152.740000
390.408630	151.900000
390.502228	151.080000
390.595795	151.380000
390.689362	151.760000
390.782959	152.460000
390.876526	153.320000
390.970093	153.460000
391.063690	154.000000
391.157257	154.020000
391.250824	154.320000
391.344421	153.760000
391.437988	154.220000
391.531555	154.100000
391.625153	154.280000
391.718750	153.880000
391.812317	153.680000
391.905914	153.080000
391.999481	153.200000
392.093079	153.140000
392.186615	153.380000
392.280243	154.080000
392.373779	154.220000
392.467407	154.400000
392.560944	154.020000
392.654572	153.380000
392.748108	153.060000
392.841736	153.300000
392.935303	152.820000
393.028900	152.880000
393.122467	153.040000
393.216064	152.900000
393.309631	152.180000
393.403229	151.760000
393.496796	151.800000
393.590393	151.180000
393.683990	151.360000
393.777557	152.040000
393.871155	152.380000
393.964722	152.720000
394.058350	153.060000
394.151917	153.140000
394.245514	152.940000
394.339081	153.360000
394.432678	153.460000
394.526245	153.540000
394.619873	153.020000
394.713409	153.180000
394.807037	152.760000
394.900604	152.780000
394.994202	152.940000
395.087769	153.440000
395.181396	153.160000
395.274994	154.220000
395.368561	153.380000
395.462158	153.480000
395.555756	153.120000
395.649353	153.600000
395.742920	152.900000
395.836517	153.680000
395.930115	152.760000
396.023712	153.060000
396.117279	153.400000
396.210876	152.840000
396.304474	152.500000
396.398071	153.340000
396.491669	153.440000
396.585266	152.620000
396.678833	152.460000
396.772461	152.800000
396.866028	152.500000
396.959656	152.560000
397.053223	152.960000
397.146851	152.960000
397.240417	152.640000
397.334015	153.200000
397.427582	153.000000
397.521210	152.900000
397.614807	153.540000
397.708405	153.580000
397.802002	153.380000
397.895599	153.920000
397.989197	154.220000
398.082794	154.260000
398.176392	154.720000
398.269989	154.660000
398.363586	154.720000
398.457184	155.320000
398.550781	155.560000
398.644379	155.080000
398.737976	155.360000
398.831573	155.920000
398.925201	156.400000
399.018768	158.240000
399.112396	162.140000
399.205963	168.060000
399.299591	176.840000
399.393158	190.140000
399.486786	211.040000
399.580353	245.820000
399.673981	311.580000
399.767578	429.700000
399.861206	615.080000
399.954773	861.420000
400.048401	1122.120000
400.141998	1332.000000
400.235596	1432.500000
400.329193	1398.060000
400.422791	1235.140000
400.516418	998.400000
400.610016	752.100000
400.703613	544.300000
400.797211	389.180000
400.890808	289.440000
400.984436	231.240000
401.078033	199.120000
401.171631	180.760000
401.265259	172.100000
401.358826	166.960000
401.452484	164.040000
401.546051	161.840000
401.639679	160.380000
401.733246	159.220000
401.826904	158.240000
401.920471	156.560000
402.014099	155.820000
402.107697	155.520000
402.201324	155.400000
402.294891	155.280000
402.388550	155.660000
402.482147	155.620000
402.575745	155.040000
402.669373	154.160000
402.762970	153.600000
402.856567	153.400000
402.950195	153.380000
403.043793	153.600000
403.137390	154.880000
403.231018	154.400000
403.324615	154.940000
403.418243	154.380000
403.511841	154.600000
403.605469	154.040000
403.699066	154.760000
403.792694	154.680000
403.886292	154.740000
403.979919	154.540000
404.073517	154.120000
404.167145	154.280000
404.260712	154.360000
404.354370	154.520000
404.447937	154.860000
404.541595	155.080000
404.635162	154.980000
404.728821	154.980000
404.822418	154.420000
404.916046	153.900000
405.009644	154.140000
405.103271	154.300000
405.196899	153.980000
405.290497	154.220000
405.384125	154.720000
405.477722	154.320000
405.571350	153.800000
405.664948	153.960000
405.758575	153.820000
405.852203	153.260000
405.945801	153.220000
406.039429	153.460000
406.133057	153.000000
406.226654	153.160000
406.320312	153.320000
406.413879	153.260000
406.507538	153.440000
406.601135	153.060000
406.694763	153.460000
406.788361	153.300000
406.882019	152.920000
406.975586	153.060000
407.069244	154.040000
407.162872	153.980000
407.256470	153.940000
407.350098	154.320000
407.443726	153.580000
407.537323	152.680000
407.630951	152.660000
407.724579	152.440000
407.818207	152.680000
407.911804	152.980000
408.005432	153.380000
408.099060	153.500000
408.192688	154.000000
408.286285	153.620000
408.379913	153.320000
408.473572	153.460000
408.567169	152.600000
408.660828	152.520000
408.754395	152.620000
408.848053	152.680000
408.941650	152.540000
409.035309	152.580000
409.128906	152.300000
409.222565	152.480000
409.316132	152.740000
409.409790	152.440000
409.503387	152.620000
409.597046	153.180000
409.690674	153.180000
409.784302	153.180000
409.877930	153.420000
409.971558	153.680000
410.065186	153.340000
410.158783	153.220000
410.252411	153.160000
410.346039	153.400000
410.439667	153.140000
410.533295	153.380000
410.626923	153.720000
410.720551	153.580000
410.814209	153.840000
410.907806	154.180000
411.001465	153.540000
411.095062	153.620000
411.188721	153.800000
411.282318	153.300000
411.375977	152.940000
411.469574	153.300000
411.563232	152.720000
411.656830	152.340000
411.750488	152.180000
411.844086	152.200000
411.937744	152.420000
412.031372	152.640000
412.125000	152.780000
412.218628	153.000000
412.312256	153.820000
412.405884	153.900000
412.499512	153.820000
412.593170	154.080000
412.686798	154.240000
412.780426	153.400000
412.874054	153.480000
412.967682	153.720000
413.061310	154.260000
413.154968	154.300000
413.248566	154.560000
413.342224	153.900000
413.435852	153.640000
413.529510	153.240000
413.623108	152.620000
413.716766	152.500000
413.810364	153.580000
413.904022	153.240000
413.997650	152.560000
414.091309	153.540000
414.184906	153.580000
414.278564	152.560000
414.372192	153.340000
414.465851	153.980000
414.559479	153.600000
414.653107	154.340000
414.746735	154.460000
414.840393	154.240000
414.934021	154.240000
415.027649	153.880000
415.121277	153.600000
415.214935	154.280000
415.308563	154.180000
415.402191	153.400000
415.495850	153.360000
415.589478	153.060000
415.683136	152.580000
415.776733	152.680000
415.870422	153.500000
415.964020	153.280000
416.057678	153.460000
416.151306	153.560000
416.244965	153.740000
416.338562	153.600000
416.432251	154.380000
416.525848	155.060000
416.619507	155.300000
416.713165	155.680000
416.806793	155.620000
416.900421	155.280000
416.994080	154.200000
417.087708	153.740000
417.181366	152.880000
417.274994	152.800000
417.368622	153.300000
417.462280	154.100000
417.555908	154.160000
417.649567	154.140000
417.743195	154.420000
417.836853	153.980000
417.930481	153.660000
418.024170	153.840000
418.117767	154.240000
418.211426	154.240000
418.305054	154.280000
418.398712	153.640000
418.492340	153.680000
418.585999	153.980000
418.679626	153.860000
418.773285	153.980000
418.866913	154.880000
418.960571	155.200000
419.054230	154.920000
419.147858	155.180000
419.241516	155.120000
419.335144	154.420000
419.428802	153.880000
419.522461	153.580000
419.616089	153.020000
419.709747	153.200000
419.803375	153.460000
419.897034	153.340000
419.990662	153.140000
420.084320	153.660000
420.177979	153.840000
420.271606	153.800000
420.365295	154.220000
420.458893	154.780000
420.552582	154.820000
420.646210	154.400000
420.739868	154.080000
420.833496	153.720000
420.927155	153.120000
421.020782	152.640000
421.114471	152.160000
421.208069	152.220000
421.301758	152.480000
421.395386	152.700000
421.489044	152.380000
421.582703	152.900000
421.676361	153.800000
421.769989	153.540000
421.863647	154.100000
421.957306	154.680000
422.050934	154.440000
422.144592	153.720000
422.238251	153.640000
422.331909	153.060000
422.425537	152.640000
422.519196	152.900000
422.612854	152.920000
422.706543	152.700000
422.800140	153.420000
422.893829	153.660000
422.987457	153.220000
423.081146	153.420000
423.174744	154.360000
423.268433	153.500000
423.362061	153.420000
423.455750	153.760000
423.549347	153.740000
423.643036	152.760000
423.736664	153.460000
423.830353	153.600000
423.924011	154.020000
424.017639	153.580000
424.111298	154.060000
424.204956	153.820000
424.298615	154.120000
424.392273	153.460000
424.485931	153.660000
424.579559	153.680000
424.673218	153.620000
424.766876	153.340000
424.860535	153.040000
424.954193	152.900000
425.047882	153.200000
425.141510	152.960000
425.235199	152.980000
425.328796	153.180000
425.422485	153.300000
425.516113	152.660000
425.609802	152.900000
425.703430	153.040000
425.797119	152.800000
425.890747	153.040000
425.984436	153.160000
426.078064	153.220000
426.171753	152.940000
426.265411	153.040000
426.359070	153.060000
426.452728	153.180000
426.546356	153.180000
426.640015	153.440000
426.733673	153.840000
426.827332	153.280000
426.920990	154.260000
427.014648	153.840000
427.108307	153.740000
427.201965	154.160000
427.295624	154.660000
427.389282	153.520000
427.482941	154.220000
427.576630	154.240000
427.670258	153.680000
427.763947	153.220000
427.857574	153.300000
427.951263	153.000000
428.044922	153.060000
428.138611	153.320000
428.232239	154.340000
428.325928	154.860000
428.419556	155.440000
428.513245	155.180000
428.606903	155.360000
428.700562	154.540000
428.794220	154.020000
428.887878	153.020000
428.981537	153.360000
429.075195	153.160000
429.168854	153.680000
429.262512	153.980000
429.356201	154.420000
429.449860	154.240000
429.543518	154.040000
429.637177	154.420000
429.730835	154.300000
429.824493	154.300000
429.918182	154.800000
430.011810	154.620000
430.105530	153.540000
430.199158	153.520000
430.292847	153.360000
430.386475	152.920000
430.480164	153.200000
430.573792	152.960000
430.667511	153.120000
430.761139	153.080000
430.854828	153.280000
430.948456	153.460000
431.042145	154.540000
431.135834	154.180000
431.229492	154.460000
431.323151	154.620000
431.416809	154.360000
431.510468	154.100000
431.604156	154.020000
431.697815	154.040000
431.791473	153.600000
431.885132	153.400000
431.978821	153.720000
432.072479	154.000000
432.166138	154.640000
432.259827	154.820000
432.353485	155.440000
432.447174	155.320000
432.540802	155.420000
432.634491	155.200000
432.728149	155.460000
432.821838	155.740000
432.915466	155.060000
433.009186	155.100000
433.102814	154.200000
433.196503	153.780000
433.290131	153.600000
433.383850	154.480000
433.477509	154.660000
433.571167	155.820000
433.664856	156.480000
433.758514	156.800000
433.852173	156.500000
433.945862	156.260000
434.039520	155.760000
434.133179	154.840000
434.226868	154.320000
434.320526	153.340000
434.414185	153.740000
434.507874	153.140000
434.601562	153.600000
434.695221	153.560000
434.788910	154.280000
434.882538	154.160000
434.976257	154.360000
435.069885	154.240000
435.163574	154.080000
435.257233	153.320000
435.350922	152.880000
435.444580	152.660000
435.538269	152.380000
435.631897	152.880000
435.725616	154.020000
435.819275	154.800000
435.912964	155.500000
436.006622	156.020000
436.100311	155.720000
436.193970	154.820000
436.287628	154.280000
436.381317	153.740000
436.474976	153.340000
436.568665	152.960000
436.662323	153.380000
436.756012	153.240000
436.849670	153.360000
436.943390	153.640000
437.037018	153.920000
437.130737	154.200000
437.224365	154.360000
437.318085	154.520000
437.411713	154.380000
437.505432	154.680000
437.599060	154.860000
437.692780	155.480000
437.786407	155.460000
437.880127	155.560000
437.973755	154.940000
438.067474	154.300000
438.161133	153.840000
438.254822	154.120000
438.348480	153.960000
438.442169	154.920000
438.535828	155.420000
438.629517	155.080000
438.723175	154.460000
438.816864	154.860000
438.910553	154.100000
439.004211	153.660000
439.097900	153.660000
439.191559	153.780000
439.285248	152.980000
439.378906	153.300000
439.472626	153.260000
439.566284	152.800000
439.659973	153.100000
439.753632	152.840000
439.847321	153.300000
439.940979	153.520000
440.034698	154.000000
440.128326	153.320000
440.222046	154.120000
440.315674	153.060000
440.409393	153.380000
440.503082	153.260000
440.596741	153.880000
440.690430	153.300000
440.784088	153.320000
440.877777	152.420000
440.971466	152.580000
441.065125	152.100000
441.158813	152.480000
441.252502	152.420000
441.346161	153.060000
441.439850	153.320000
441.533539	153.360000
441.627197	153.540000
441.720886	153.440000
441.814606	153.680000
441.908234	153.800000
442.001953	153.800000
442.095612	153.620000
442.189301	154.240000
442.282959	154.020000
442.376678	153.040000
442.470306	153.880000
442.564026	153.640000
442.657684	153.800000
442.751404	153.780000
442.845032	154.720000
442.938751	153.900000
443.032440	154.260000
443.126099	153.700000
443.219788	153.980000
443.313477	153.640000
443.407166	154.080000
443.500824	153.880000
443.594513	154.200000
443.688202	153.900000
443.781891	153.480000
443.875549	152.960000
443.969238	153.140000
444.062927	153.080000
444.156647	153.020000
444.250275	153.800000
444.343994	153.960000
444.437653	154.120000
444.531372	154.060000
444.625031	153.860000
444.718719	153.140000
444.812378	153.240000
444.906097	152.860000
444.999756	152.440000
445.093445	152.640000
445.187103	152.800000
445.280823	153.080000
445.374512	152.680000
445.468201	152.960000
445.561859	152.740000
445.655548	152.840000
445.749237	152.140000
445.842926	152.340000
445.936615	152.660000
446.030304	152.520000
446.123962	152.800000
446.217651	152.800000
446.311340	153.140000
446.405029	152.980000
446.498749	152.980000
446.592407	152.540000
446.686096	153.120000
446.779755	153.080000
446.873474	152.940000
446.967133	153.420000
447.060852	153.060000
447.154510	152.780000
447.248230	152.760000
447.341858	152.860000
447.435577	152.160000
447.529236	152.180000
447.622955	151.820000
447.716644	151.840000
447.810333	151.860000
447.904022	152.820000
447.997711	153.000000
448.091400	153.600000
448.185059	153.540000
448.278748	153.800000
448.372437	153.280000
448.466125	153.580000
448.559814	153.560000
448.653503	154.060000
448.747192	154.060000
448.840912	154.700000
448.934570	154.660000
449.028290	154.800000
449.121948	154.260000
449.215637	153.740000
449.309296	152.880000
449.403015	152.940000
449.496674	152.620000
449.590393	152.620000
449.684052	152.640000
449.777771	153.600000
449.871429	153.060000
449.965149	153.060000
450.058838	153.020000
450.152527	153.560000
450.246216	152.860000
450.339905	153.360000
450.433594	153.160000
450.527283	154.320000
450.620972	153.880000
450.714661	154.160000
450.808350	154.080000
450.902039	154.720000
450.995728	153.800000
451.089417	153.780000
451.183105	153.720000
451.276794	154.120000
451.370514	153.160000
451.464172	152.500000
451.557892	152.380000
451.651550	152.400000
451.745270	152.100000
451.838928	152.120000
451.932648	152.800000
452.026306	153.480000
452.120026	153.040000
452.213684	153.380000
452.307404	153.660000
452.401062	153.540000
452.494781	153.220000
452.588470	153.300000
452.682159	152.700000
452.775848	152.860000
452.869537	152.400000
452.963226	152.260000
453.056915	152.440000
453.150604	152.520000
453.244293	152.380000
453.337982	153.360000
453.431671	153.660000
453.525360	154.080000
453.619049	154.200000
453.712769	154.180000
453.806427	153.120000
453.900146	152.520000
453.993805	152.300000
454.087555	152.720000
454.181213	152.880000
454.274933	153.220000
454.368591	153.480000
454.462311	153.380000
454.555969	153.060000
454.649689	153.920000
454.743347	154.100000
454.837067	154.640000
454.930756	155.180000
455.024445	155.000000
455.118134	154.200000
455.211853	154.140000
455.305542	153.800000
455.399231	153.380000
455.492920	153.480000
455.586609	153.720000
455.680298	154.000000
455.773987	153.700000
455.867676	153.500000
455.961365	153.800000
456.055084	153.340000
456.148773	152.860000
456.242493	153.180000
456.336151	152.940000
456.429871	153.200000
456.523529	153.800000
456.617249	153.600000
456.710907	153.940000
456.804626	154.200000
456.898315	153.400000
456.992035	153.000000
457.085693	153.200000
457.179413	152.380000
457.273102	153.220000
457.366791	153.360000
457.460480	153.940000
457.554199	154.680000
457.647888	155.100000
457.741577	154.460000
457.835266	154.720000
457.928955	154.380000
458.022644	154.400000
458.116364	154.840000
458.210052	154.820000
458.303741	154.820000
458.397461	154.340000
458.491119	153.500000
458.584839	153.100000
458.678528	152.780000
458.772247	152.140000
458.865906	152.700000
458.959625	153.800000
459.053284	153.680000
459.147003	153.640000
459.240692	154.500000
459.334412	154.180000
459.428070	153.580000
459.521790	153.680000
459.615479	153.740000
459.709198	153.900000
459.802887	153.540000
459.896576	153.060000
459.990265	153.180000
460.083954	153.300000
460.177673	152.660000
460.271362	152.980000
460.365051	153.140000
460.458740	152.580000
460.552429	152.200000
460.646149	152.160000
460.739838	151.920000
460.833527	152.140000
460.927246	151.900000
461.020905	152.020000
461.114655	152.380000
461.208313	152.740000
461.302032	152.140000
461.395691	152.780000
461.489441	152.940000
461.583099	152.620000
461.676819	152.480000
461.770477	153.220000
461.864197	153.100000
461.957916	152.680000
462.051605	152.140000
462.145294	153.100000
462.238983	152.680000
462.332703	152.940000
462.426392	153.800000
462.520081	153.900000
462.613770	153.100000
462.707489	153.540000
462.801178	153.280000
462.894867	152.800000
462.988556	153.460000
463.082275	153.300000
463.175964	152.660000
463.269684	153.080000
463.363342	153.100000
463.457092	152.200000
463.550751	152.640000
463.644470	153.160000
463.738129	152.640000
463.831879	152.960000
463.925537	154.080000
464.019257	153.860000
464.112946	153.500000
464.206665	153.340000
464.300323	152.820000
464.394043	152.220000
464.487762	152.360000
464.581451	152.860000
464.675140	153.020000
464.768829	153.520000
464.862549	153.880000
464.956238	153.640000
465.049927	153.400000
465.143646	153.700000
465.237335	153.620000
465.331024	153.880000
465.424713	154.280000
465.518433	154.020000
465.612152	153.540000
465.705811	153.240000
465.799561	152.840000
465.893219	152.220000
465.986938	152.420000
466.080597	152.200000
466.174347	152.460000
466.268005	152.460000
466.361725	152.440000
466.455414	152.280000
466.549133	152.560000
466.642792	152.660000
466.736542	152.200000
466.830231	152.500000
466.923920	152.640000
467.017609	152.900000
467.111328	152.320000
467.205017	152.700000
467.298706	152.600000
467.392426	152.640000
467.486115	152.640000
467.579803	152.700000
467.673523	152.940000
467.767212	153.340000
467.860901	153.280000
467.954651	153.420000
468.048309	153.760000
468.142029	153.580000
468.235718	153.260000
468.329437	152.940000
468.423096	152.620000
468.516846	152.320000
468.610504	151.920000
468.704224	151.520000
468.797913	151.460000
468.891632	151.720000
468.985291	151.980000
469.079010	152.440000
469.172729	152.480000
469.266418	153.200000
469.360107	153.080000
469.453827	153.020000
469.547516	153.000000
469.641205	153.360000
469.734924	153.540000
469.828613	153.860000
469.922302	154.040000
470.016022	153.880000
470.109711	153.480000
470.203430	152.460000
470.297150	151.480000
470.390808	151.480000
470.484558	151.540000
470.578217	152.380000
470.671936	153.020000
470.765625	154.220000
470.859344	153.760000
470.953003	154.040000
471.046753	153.580000
471.140411	153.040000
471.234131	152.940000
471.327820	153.620000
471.421539	153.440000
471.515228	153.200000
471.608948	153.600000
471.702637	152.880000
471.796326	152.380000
471.890045	152.820000
471.983734	153.020000
472.077423	152.860000
472.171143	153.180000
472.264832	153.300000
472.358521	152.820000
472.452240	152.380000
472.545929	153.080000
472.639648	153.320000
472.733337	153.480000
472.827057	153.680000
472.920746	154.060000
473.014465	154.060000
473.108124	154.120000
473.201874	154.160000
473.295532	153.980000
473.389252	154.360000
473.482941	154.420000
473.576660	153.920000
473.670319	153.780000
473.764069	153.900000
473.857727	153.580000
473.951477	153.660000
474.045166	154.420000
474.138855	154.320000
474.232574	154.260000
474.326263	154.620000
474.419952	154.460000
474.513672	153.840000
474.607361	153.420000
474.701050	153.800000
474.794769	153.740000
474.888458	153.860000
474.982178	154.080000
475.075867	154.600000
475.169586	154.160000
475.263275	153.700000
475.356995	153.340000
475.450653	152.940000
475.544403	152.680000
475.638062	153.740000
475.731812	153.660000
475.825470	153.340000
475.919189	153.760000
476.012878	154.360000
476.106598	153.300000
476.200256	153.780000
476.294006	154.200000
476.387695	154.020000
476.481384	153.500000
476.575104	153.760000
476.668793	153.660000
476.762512	152.980000
476.856201	153.440000
476.949890	153.320000
477.043610	152.380000
477.137299	152.220000
477.230988	152.820000
477.324707	152.600000
477.418396	153.180000
477.512146	153.820000
477.605804	153.520000
477.699524	153.660000
477.793213	153.320000
477.886932	152.980000
477.980591	152.840000
478.074341	153.040000
478.167999	152.400000
478.261749	152.620000
478.355408	152.580000
478.449127	153.140000
478.542816	154.160000
478.636536	155.080000
478.730225	155.300000
478.823944	155.480000
478.917633	154.900000
479.011322	154.000000
479.105042	153.660000
479.198730	153.740000
479.292450	153.780000
479.386139	154.220000
479.479828	154.460000
479.573547	154.460000
479.667267	154.020000
479.760925	153.920000
479.854675	154.160000
479.948334	154.220000
480.042084	153.540000
480.135742	153.860000
480.229462	153.300000
480.323151	153.060000
480.416870	152.460000
480.510529	152.700000
480.604279	152.280000
480.697937	152.780000
480.791656	152.160000
480.885345	152.420000
480.979065	152.600000
481.072754	153.280000
481.166473	153.700000
481.260132	154.280000
481.353882	154.340000
481.447540	154.180000
481.541260	153.900000
481.635010	153.260000
481.728668	152.960000
481.822388	152.480000
481.916077	153.040000
482.009796	152.680000
482.103485	153.340000
482.197205	153.500000
482.290863	153.940000
482.384613	153.380000
482.478271	153.180000
482.571991	152.940000
482.665680	152.980000
482.759399	153.600000
482.853058	154.280000
482.946808	154.280000
483.040466	153.980000
483.134216	153.880000
483.227875	153.180000
483.321594	153.200000
483.415283	153.280000
483.509003	153.380000
483.602661	152.940000
483.696411	153.540000
483.790070	153.140000
483.883789	153.360000
483.977478	153.660000
484.071198	154.100000
484.164917	153.100000
484.258606	152.800000
484.352325	153.280000
484.445984	153.320000
484.539734	153.260000
484.633392	153.180000
484.727142	153.560000
484.820801	153.300000
484.914520	153.060000
485.008209	153.280000
485.101929	153.940000
485.195587	153.540000
485.289337	153.240000
485.382996	153.060000
485.476715	152.940000
485.570404	153.480000
485.664124	153.580000
485.757782	154.180000
485.851532	153.940000
485.945190	153.780000
486.038910	153.620000
486.132599	154.140000
486.226318	153.440000
486.319977	153.460000
486.413727	153.900000
486.507446	153.100000
486.601105	152.520000
486.694855	152.480000
486.788513	152.500000
486.882233	151.980000
486.975922	152.340000
487.069641	151.900000
487.163300	151.900000
487.257050	153.180000
487.350708	152.920000
487.444427	152.780000
487.538116	153.340000
487.631836	153.300000
487.725494	152.700000
487.819214	153.360000
487.912903	153.260000
488.006622	153.720000
488.100281	154.140000
488.194031	153.800000
488.287689	153.980000
488.381409	154.800000
488.475098	154.260000
488.568817	154.260000
488.662476	154.140000
488.756226	153.380000
488.849945	152.480000
488.943604	152.760000
489.037354	153.020000
489.131012	152.820000
489.224731	153.100000
489.318390	153.120000
489.412140	153.080000
489.505798	152.780000
489.599518	152.580000
489.693207	152.640000
489.786926	152.780000
489.880585	152.540000
489.974335	152.620000
490.067993	154.120000
490.161713	154.420000
490.255371	155.200000
490.349121	155.700000
490.442780	155.320000
490.536499	154.100000
490.630188	154.220000
490.723907	153.440000
490.817566	153.120000
490.911285	153.140000
491.004974	153.260000
491.098694	152.620000
491.192413	153.480000
491.286102	153.280000
491.379822	153.560000
491.473480	153.780000
491.567200	153.900000
491.660889	153.020000
491.754608	153.440000
491.848267	153.280000
491.941986	152.840000
492.035675	152.960000
492.129395	153.320000
492.223053	153.080000
492.316772	153.460000
492.410461	153.700000
492.504181	153.580000
492.597839	153.280000
492.691559	153.220000
492.785248	153.120000
492.878967	153.260000
492.972626	153.080000
493.066345	153.280000
493.160034	152.960000
493.253754	152.780000
493.347412	152.240000
493.441132	152.700000
493.534882	153.080000
493.628540	153.660000
493.722260	153.940000
493.815918	154.300000
493.909668	154.460000
494.003326	154.540000
494.097046	154.400000
494.190704	154.080000
494.284454	154.300000
494.378113	154.260000
494.471832	153.720000
494.565491	153.580000
494.659210	153.680000
494.752899	153.840000
494.846619	153.660000
494.940277	153.800000
495.033997	153.700000
495.127686	153.320000
495.221405	153.020000
495.315063	153.140000
495.408783	153.000000
495.502441	153.200000
495.596191	153.440000
495.689850	153.220000
495.783569	153.460000
495.877228	153.840000
495.970947	153.340000
496.064697	153.440000
496.158356	154.300000
496.252075	153.800000
496.345734	153.540000
496.439453	154.680000
496.533142	154.640000
496.626862	154.520000
496.720520	154.820000
496.814240	154.800000
496.907898	154.240000
497.001617	154.560000
497.095306	153.840000
497.189026	153.540000
497.282684	153.620000
497.376404	153.860000
497.470062	153.440000
497.563782	153.820000
497.657471	153.900000
497.751190	153.680000
497.844849	153.460000
497.938568	153.640000
498.032227	153.220000
498.125946	153.220000
498.219635	153.080000
498.313354	153.240000
498.407074	153.120000
498.500732	153.760000
498.594452	153.900000
498.688110	153.660000
498.781830	153.060000
498.875519	153.020000
498.969238	152.460000
499.062897	152.260000
499.156616	152.900000
499.250275	153.280000
499.343994	152.900000
499.437653	153.180000
499.531372	153.380000
499.625061	153.660000
499.718781	153.500000
499.812439	153.980000
499.906158	153.760000
499.999817	153.800000
500.093536	153.460000
500.187195	153.580000
500.280914	153.580000
500.374573	153.780000
500.468323	153.320000
500.561981	153.400000
500.655701	153.340000
500.749420	153.240000
500.843079	153.460000
500.936798	153.800000
501.030457	153.780000
501.124176	153.960000
501.217834	153.940000
501.311554	153.900000
501.405212	153.520000
501.498962	153.100000
501.592621	152.800000
501.686340	153.180000
501.779999	152.960000
501.873718	153.100000
501.967377	153.500000
502.061096	154.040000
502.154755	153.420000
502.248474	153.680000
502.342133	154.140000
502.435852	153.900000
502.529510	154.360000
502.623230	155.420000
502.716888	154.600000
502.810608	154.260000
502.904266	154.860000
502.997986	153.900000
503.091705	153.180000
503.185364	153.620000
503.279083	153.980000
503.372772	153.500000
503.466492	153.480000
503.560150	153.320000
503.653870	153.440000
503.747528	153.280000
503.841248	153.280000
503.934906	153.420000
504.028625	153.220000
504.122284	153.480000
504.216003	154.040000
504.309662	153.800000
504.403381	154.060000
504.497040	154.320000
504.590759	154.200000
504.684418	154.040000
504.778137	154.420000
504.871796	154.520000
504.965515	154.460000
505.059174	154.020000
505.152893	153.380000
505.246521	152.960000
505.340240	152.540000
505.433899	152.660000
505.527618	153.020000
505.621338	153.580000
505.714996	153.480000
505.808716	153.280000
505.902374	153.480000
505.996094	153.640000
506.089752	152.820000
506.183472	152.920000
506.277130	153.480000
506.370850	153.560000
506.464508	153.180000
506.558228	153.680000
506.651886	153.400000
506.745605	153.220000
506.839264	153.100000
506.932983	153.200000
507.026611	153.240000
507.120331	154.060000
507.213989	153.420000
507.307709	153.380000
507.401367	153.820000
507.495087	154.480000
507.588745	153.960000
507.682465	155.100000
507.776123	154.840000
507.869843	154.460000
507.963531	154.020000
508.057190	154.720000
508.150909	153.900000
508.244568	154.200000
508.338287	154.080000
508.431946	153.740000
508.525665	153.060000
508.619324	152.940000
508.713013	152.900000
508.806671	153.360000
508.900391	154.040000
508.994049	154.460000
509.087769	154.260000
509.181427	154.180000
509.275146	153.740000
509.368774	152.860000
509.462494	152.480000
509.556152	152.820000
509.649872	153.300000
509.743530	153.340000
509.837250	153.540000
509.930878	153.760000
510.024597	153.440000
510.118256	152.840000
510.211975	152.960000
510.305695	152.840000
510.399353	153.180000
510.493042	154.120000
510.586700	154.520000
510.680420	155.180000
510.774078	154.960000
510.867798	155.080000
510.961426	154.240000
511.055145	154.080000
511.148804	153.140000
511.242523	154.000000
511.336151	154.060000
511.429871	154.740000
511.523529	154.700000
511.617249	154.620000
511.710876	154.280000
511.804596	153.580000
511.898254	153.240000
511.991974	153.340000
512.085632	153.340000
512.179321	153.380000
512.272949	153.680000
512.366699	154.080000
512.460327	154.120000
512.554077	155.140000
512.647766	155.300000
512.741394	154.940000
512.835144	155.360000
512.928772	155.000000
513.022461	154.540000
513.116150	154.060000
513.209839	154.760000
513.303467	153.740000
513.397217	153.460000
513.490845	152.940000
513.584595	153.020000
513.678223	152.480000
513.771912	152.240000
513.865601	152.880000
513.959290	152.860000
514.052917	152.820000
514.146667	153.540000
514.240295	154.060000
514.333984	154.280000
514.427673	154.420000
514.521362	154.760000
514.614990	153.880000
514.708740	153.880000
514.802368	153.700000
514.896057	154.160000
514.989746	155.040000
515.083435	154.960000
515.177124	155.400000
515.270752	155.020000
515.364502	154.560000
515.458130	153.760000
515.551819	153.940000
515.645508	153.300000
515.739197	153.440000
515.832825	153.580000
515.926575	153.040000
516.020203	153.060000
516.113892	153.700000
516.207520	153.600000
516.301270	153.620000
516.394897	154.060000
516.488586	154.660000
516.582275	154.400000
516.675964	153.760000
516.769592	153.540000
516.863281	154.080000
516.956970	154.000000
517.050659	153.900000
517.144287	154.540000
517.238037	154.820000
517.331665	153.920000
517.425354	153.480000
517.519043	153.180000
517.612732	153.440000
517.706421	153.400000
517.800049	153.460000
517.893738	153.180000
517.987427	153.420000
518.081116	153.180000
518.174744	152.700000
518.268433	153.020000
518.362122	154.060000
518.455811	153.580000
518.549438	154.300000
518.643127	155.520000
518.736816	155.440000
518.830505	154.500000
518.924133	154.680000
519.017822	154.320000
519.111511	153.760000
519.205200	154.100000
519.298828	154.420000
519.392517	154.200000
519.486206	154.080000
519.579895	153.860000
519.673523	153.100000
519.767212	153.120000
519.860901	153.940000
519.954590	153.580000
520.048279	153.140000
520.141907	153.220000
520.235596	153.740000
520.329224	153.780000
520.422974	153.780000
520.516602	153.900000
520.610291	153.540000
520.703918	153.320000
520.797607	152.680000
520.891296	152.680000
520.984985	152.660000
521.078613	153.460000
521.172302	152.760000
521.265930	153.520000
521.359680	154.000000
521.453308	154.260000
521.546997	154.140000
521.640625	154.340000
521.734314	153.860000
521.827942	153.680000
521.921692	154.000000
522.015320	153.780000
522.109009	153.540000
522.202698	153.460000
522.296326	153.300000
522.390015	153.340000
522.483704	153.560000
522.577393	153.880000
522.671021	153.420000
522.764709	152.880000
522.858337	153.200000
522.952026	152.940000
523.045654	153.420000
523.139404	154.420000
523.233032	155.060000
523.326721	154.620000
523.420349	154.640000
523.514038	153.920000
523.607666	154.040000
523.701355	153.560000
523.795044	153.440000
523.888733	153.780000
523.982361	154.260000
524.076050	153.780000
524.169678	154.360000
524.263367	153.680000
524.356995	153.300000
524.450684	152.800000
524.544373	152.200000
524.638062	152.200000
524.731750	153.060000
524.825378	153.300000
524.919067	153.160000
525.012695	153.420000
525.106384	153.100000
525.200012	152.760000
525.293701	152.640000
525.387329	153.180000
525.481018	153.600000
525.574646	153.580000
525.668396	153.840000
525.762024	154.200000
525.855713	154.200000
525.949341	153.600000
526.043030	153.820000
526.136658	153.320000
526.230347	152.700000
526.323975	152.260000
526.417664	152.120000
526.511292	152.040000
526.604980	152.440000
526.698608	152.820000
526.792297	153.140000
526.885925	153.560000
526.979614	154.040000
527.073303	153.840000
527.166931	153.540000
527.260620	153.600000
527.354309	154.100000
527.447998	153.460000
527.541626	153.180000
527.635315	153.240000
527.728943	153.660000
527.822632	153.720000
527.916260	153.940000
528.009949	154.280000
528.103577	154.100000
528.197266	153.280000
528.290894	153.060000
528.384583	152.740000
528.478210	152.640000
528.571899	153.040000
528.665527	153.640000
528.759216	153.620000
528.852844	154.200000
528.946533	154.300000
529.040161	154.120000
529.133850	153.840000
529.227478	154.020000
529.321167	154.280000
529.414856	154.620000
529.508484	155.140000
529.602173	154.680000
529.695801	154.320000
529.789490	153.800000
529.883057	153.500000
529.976746	153.260000
530.070374	154.040000
530.164062	153.920000
530.257690	154.360000
530.351379	154.520000
530.445007	154.300000
530.538696	153.660000
530.632324	153.980000
530.726013	153.900000
530.819641	153.780000
530.913330	153.840000
531.006958	153.880000
531.100647	154.060000
531.194275	153.660000
531.287964	153.600000
531.381592	153.520000
531.475220	153.760000
531.568848	153.460000
531.662537	153.400000
531.756226	153.780000
531.849854	153.840000
531.943542	153.560000
532.037170	152.860000
532.130859	153.300000
532.224487	152.640000
532.318176	152.280000
532.411804	153.000000
532.505432	153.600000
532.599060	153.260000
532.692749	153.320000
532.786377	153.940000
532.880066	153.060000
532.973694	152.560000
533.067383	152.460000
533.161011	152.520000
533.254639	152.040000
533.348267	152.040000
533.441956	152.620000
533.535583	152.440000
533.629272	152.640000
533.722900	152.360000
533.816589	152.560000
533.910156	152.840000
534.003845	152.660000
534.097534	152.780000
534.191162	153.640000
534.284851	153.880000
534.378479	153.240000
534.472107	153.400000
534.565735	153.340000
534.659424	153.340000
534.753052	153.300000
534.846741	153.260000
534.940369	154.280000
535.033997	154.300000
535.127625	154.060000
535.221313	154.740000
535.314941	154.820000
535.408630	153.520000
535.502197	153.720000
535.595886	153.360000
535.689514	152.680000
535.783203	153.320000
535.876831	154.160000
535.970459	153.940000
536.064087	153.760000
536.157776	153.720000
536.251404	153.180000
536.345093	152.780000
536.438721	152.720000
536.532349	153.080000
536.626038	152.920000
536.719666	153.480000
536.813293	153.300000
536.906921	153.320000
537.000610	153.500000
537.094238	153.580000
537.187866	153.180000
537.281494	153.020000
537.375183	153.300000
537.468811	152.880000
537.562439	152.980000
537.656067	152.840000
537.749756	153.300000
537.843384	153.760000
537.937012	154.100000
538.030640	154.140000
538.124329	154.020000
538.217896	154.360000
538.311584	153.940000
538.405212	153.680000
538.498901	153.760000
538.592468	154.620000
538.686157	153.980000
538.779785	153.280000
538.873413	153.480000
538.967102	153.080000
539.060730	152.140000
539.154358	152.500000
539.247986	153.040000
539.341675	153.140000
539.435242	152.980000
539.528931	153.380000
539.622559	152.860000
539.716187	153.160000
539.809814	153.020000
539.903503	153.280000
539.997070	152.940000
540.090759	153.280000
540.184387	152.940000
540.278015	153.380000
540.371643	153.860000
540.465332	154.240000
540.558899	154.080000
540.652588	154.020000
540.746216	153.400000
540.839844	153.440000
540.933472	153.400000
541.027100	153.640000
541.120728	153.900000
541.214417	154.260000
541.308044	154.380000
541.401672	154.200000
541.495300	153.900000
541.588928	153.600000
541.682617	153.260000
541.776184	152.680000
541.869873	153.300000
541.963440	153.480000
542.057129	153.500000
542.150757	153.720000
542.244385	153.540000
542.338013	152.600000
542.431641	152.740000
542.525269	152.780000
542.618958	153.220000
542.712524	153.760000
542.806213	153.660000
542.899780	153.760000
542.993469	153.360000
543.087036	152.800000
543.180725	152.080000
543.274292	153.080000
543.367981	153.280000
543.461548	153.820000
543.555237	153.980000
543.648926	155.000000
543.742493	155.100000
543.836182	154.920000
543.929749	154.580000
544.023437	154.500000
544.117004	154.100000
544.210693	153.940000
544.304260	153.860000
544.397949	153.840000
544.491516	154.180000
544.585205	154.000000
544.678772	153.520000
544.772461	154.040000
544.866028	153.960000
544.959717	154.060000
545.053284	153.840000
545.146973	154.080000
545.240540	153.780000
545.334229	154.360000
545.427795	154.340000
545.521423	154.720000
545.615051	154.660000
545.708679	155.000000
545.802307	154.980000
545.895935	155.320000
545.989624	155.820000
546.083191	155.460000
546.176880	155.040000
546.270447	154.100000
546.364136	153.840000
546.457703	153.360000
546.551331	153.720000
546.644958	153.840000
546.738586	154.720000
546.832214	154.440000
546.925842	154.280000
547.019409	154.360000
547.113098	153.900000
547.206665	153.340000
547.300354	153.380000
547.393921	153.700000
547.487549	154.140000
547.581177	154.160000
547.674805	154.400000
547.768433	153.740000
547.862061	153.760000
547.955627	152.920000
548.049316	153.520000
548.142883	153.600000
548.236572	154.060000
548.330139	153.920000
548.423767	153.920000
548.517456	153.660000
548.611023	154.340000
548.704651	154.100000
548.798279	154.060000
548.891907	154.740000
548.985474	154.780000
549.079163	154.720000
549.172729	154.760000
549.266357	154.240000
549.359985	154.100000
549.453613	153.140000
549.547180	152.360000
549.640869	152.600000
549.734436	152.760000
549.828064	152.940000
549.921631	153.260000
550.015320	153.220000
550.108887	153.700000
550.202515	153.580000
550.296143	153.140000
550.389771	153.680000
550.483337	153.860000
550.576965	153.120000
550.670593	153.940000
550.764221	153.840000
550.857849	153.700000
550.951477	153.360000
551.045105	153.380000
551.138672	153.060000
551.232300	152.680000
551.325928	152.880000
551.419556	153.060000
551.513123	153.180000
551.606750	152.600000
551.700378	152.880000
551.794006	152.640000
551.887573	152.780000
551.981201	153.120000
552.074768	153.480000
552.168457	153.340000
552.262024	154.320000
552.355652	154.400000
552.449219	154.720000
552.542847	154.900000
552.636475	155.020000
552.730103	153.920000
552.823669	153.720000
552.917297	152.940000
553.010864	152.820000
553.104553	153.100000
553.198181	152.840000
553.291748	153.240000
553.385376	153.580000
553.478943	153.520000
553.572571	153.620000
553.666199	153.880000
553.759827	153.420000
553.853394	153.080000
553.947021	153.140000
554.040588	152.720000
554.134216	152.900000
554.227783	153.700000
554.321411	154.340000
554.415039	154.020000
554.508667	154.040000
554.602234	154.500000
554.695862	153.620000
554.789429	153.180000
554.883057	153.640000
554.976624	153.900000
555.070251	153.480000
555.163818	153.660000
555.257507	153.600000
555.351074	153.520000
555.444702	154.580000
555.538330	153.980000
555.631897	154.200000
555.725525	154.140000
555.819092	153.880000
555.912720	152.480000
556.006287	153.500000
556.099915	153.140000
556.193481	153.660000
556.287109	153.860000
556.380676	153.960000
556.474304	153.580000
556.567871	154.320000
556.661499	153.680000
556.755066	153.640000
556.848694	153.480000
556.942261	153.280000
557.035889	153.100000
557.129517	153.160000
557.223145	153.860000
557.316711	154.180000
557.410339	154.400000
557.503906	154.060000
557.597473	154.580000
557.691040	154.040000
557.784668	153.820000
557.878296	153.700000
557.971863	154.240000
558.065491	154.380000
558.159058	154.140000
558.252686	155.280000
558.346252	156.000000
558.439880	155.160000
558.533447	154.360000
558.627075	154.020000
558.720642	153.140000
558.814270	152.480000
558.907837	152.860000
559.001465	152.640000
559.095032	153.400000
559.188660	153.440000
559.282227	152.680000
559.375854	153.240000
559.469360	153.240000
559.562988	153.680000
559.656555	153.480000
559.750183	154.000000
559.843750	153.800000
559.937378	154.240000
560.030945	153.460000
560.124573	0.000000
560.218140	0.000000
560.311707	0.000000
560.405334	0.000000
560.498901	0.000000
560.592529	0.000000
560.686096	0.000000
560.779724	0.000000
560.873291	0.000000
560.966858	0.000000
561.060425	0.000000
561.154053	0.000000
561.247620	0.000000
561.341248	0.000000
561.434814	0.000000
561.528381	0.000000
561.621948	0.000000
561.715576	0.000000
561.809143	0.000000
561.902771	0.000000
561.996277	0.000000
562.089905	0.000000
562.183472	0.000000
562.277100	0.000000
