Model Number: SPM-002-B   
Serial Number: 70087108
Firmware Version: 004.15.4
Exposure Time: 100000.000000us
Data Taken on: 15-01-2021 16:36:06.803
Wavelength	Amplitude
221.570786	0.000000
221.663406	0.000000
221.756027	0.000000
221.848648	0.000000
221.941269	0.000000
222.033905	0.000000
222.126526	0.000000
222.219162	0.000000
222.311798	0.000000
222.404419	0.000000
222.497055	0.000000
222.589676	0.000000
222.682312	0.000000
222.774933	0.000000
222.867569	0.000000
222.960205	0.000000
223.052841	0.000000
223.145462	0.000000
223.238098	0.000000
223.330734	0.000000
223.423386	0.000000
223.516022	0.000000
223.608658	0.000000
223.701309	0.000000
223.793945	0.000000
223.886581	0.000000
223.979218	0.000000
224.071869	0.000000
224.164505	0.000000
224.257156	0.000000
224.349792	0.000000
224.442444	0.000000
224.535095	0.000000
224.627747	0.000000
224.720398	0.000000
224.813034	0.000000
224.905685	0.000000
224.998337	153.040000
225.090988	152.540000
225.183640	152.880000
225.276291	152.780000
225.368942	153.000000
225.461594	153.500000
225.554245	153.940000
225.646912	153.840000
225.739578	154.260000
225.832230	154.700000
225.924896	153.860000
226.017548	154.180000
226.110199	154.860000
226.202866	154.140000
226.295532	153.800000
226.388184	153.660000
226.480850	153.140000
226.573517	152.500000
226.666168	152.900000
226.758835	153.280000
226.851501	154.140000
226.944183	154.260000
227.036850	154.100000
227.129517	154.200000
227.222183	154.280000
227.314850	154.020000
227.407516	154.000000
227.500198	154.720000
227.592865	154.400000
227.685532	153.860000
227.778214	153.580000
227.870880	154.140000
227.963562	154.540000
228.056229	155.180000
228.148926	155.280000
228.241592	156.260000
228.334274	155.480000
228.426956	154.780000
228.519638	154.400000
228.612305	153.760000
228.704987	153.380000
228.797668	153.620000
228.890350	153.640000
228.983032	153.240000
229.075714	154.160000
229.168396	153.940000
229.261108	153.280000
229.353790	153.420000
229.446472	153.900000
229.539169	153.700000
229.631851	153.240000
229.724533	153.840000
229.817230	154.040000
229.909912	154.720000
230.002609	154.540000
230.095306	154.820000
230.187988	155.140000
230.280685	154.360000
230.373383	153.280000
230.466095	153.360000
230.558792	153.520000
230.651474	153.320000
230.744171	153.600000
230.836868	153.620000
230.929581	153.560000
231.022278	153.580000
231.114975	153.600000
231.207672	153.380000
231.300369	153.820000
231.393082	153.900000
231.485779	153.860000
231.578506	153.820000
231.671204	154.280000
231.763916	154.340000
231.856613	154.440000
231.949326	154.540000
232.042023	154.260000
232.134735	154.200000
232.227448	153.580000
232.320160	153.860000
232.412872	153.680000
232.505585	154.740000
232.598297	154.920000
232.691010	155.020000
232.783722	154.220000
232.876450	154.800000
232.969162	153.800000
233.061874	153.460000
233.154587	153.360000
233.247314	154.280000
233.340027	153.220000
233.432739	153.900000
233.525467	153.680000
233.618179	154.100000
233.710907	153.180000
233.803635	153.880000
233.896347	153.300000
233.989090	154.020000
234.081818	154.120000
234.174545	154.480000
234.267258	153.960000
234.359985	154.300000
234.452713	154.260000
234.545441	154.140000
234.638168	153.960000
234.730896	154.440000
234.823639	154.200000
234.916367	154.340000
235.009094	154.120000
235.101822	154.300000
235.194580	154.220000
235.287308	154.320000
235.380051	153.820000
235.472778	154.320000
235.565521	154.560000
235.658249	153.960000
235.750992	153.820000
235.843719	153.760000
235.936462	154.000000
236.029205	153.460000
236.121948	153.440000
236.214691	154.120000
236.307449	154.800000
236.400192	153.800000
236.492935	153.720000
236.585678	154.080000
236.678421	153.620000
236.771164	152.540000
236.863907	153.540000
236.956665	153.940000
237.049408	155.780000
237.142151	155.500000
237.234909	156.940000
237.327652	156.440000
237.420410	156.280000
237.513153	154.800000
237.605927	154.740000
237.698669	153.680000
237.791428	153.120000
237.884186	153.380000
237.976944	152.900000
238.069702	153.060000
238.162445	153.160000
238.255203	153.320000
238.347961	153.820000
238.440720	154.100000
238.533478	153.960000
238.626266	153.600000
238.719025	154.020000
238.811783	153.580000
238.904541	153.480000
238.997314	153.640000
239.090073	153.520000
239.182831	153.600000
239.275604	154.140000
239.368362	154.000000
239.461136	153.980000
239.553909	154.060000
239.646667	153.860000
239.739441	153.320000
239.832214	153.660000
239.925003	154.180000
240.017761	154.820000
240.110535	155.420000
240.203308	155.220000
240.296082	155.220000
240.388855	154.700000
240.481628	154.840000
240.574417	154.660000
240.667191	154.520000
240.759964	154.120000
240.852737	154.260000
240.945526	153.840000
241.038315	153.520000
241.131088	153.840000
241.223877	154.420000
241.316650	154.100000
241.409439	154.340000
241.502228	154.040000
241.595001	154.340000
241.687790	154.160000
241.780579	154.260000
241.873367	154.140000
241.966141	154.800000
242.058929	154.340000
242.151718	154.380000
242.244507	154.780000
242.337311	154.360000
242.430099	154.820000
242.522903	154.980000
242.615692	154.600000
242.708481	154.220000
242.801270	154.760000
242.894073	154.160000
242.986862	154.180000
243.079651	155.080000
243.172455	154.880000
243.265244	154.920000
243.358063	154.460000
243.450867	154.640000
243.543655	154.140000
243.636459	154.360000
243.729263	154.460000
243.822067	154.860000
243.914856	155.080000
244.007660	155.380000
244.100464	155.400000
244.193268	154.820000
244.286072	154.460000
244.378876	154.000000
244.471680	153.460000
244.564499	153.520000
244.657318	154.420000
244.750122	155.020000
244.842926	154.580000
244.935745	155.140000
245.028549	154.900000
245.121368	154.460000
245.214172	154.160000
245.306992	154.560000
245.399796	153.740000
245.492615	153.820000
245.585434	153.420000
245.678253	153.320000
245.771072	153.360000
245.863892	154.080000
245.956711	154.340000
246.049530	154.320000
246.142349	154.260000
246.235168	154.120000
246.327988	154.080000
246.420807	153.700000
246.513626	153.740000
246.606445	153.820000
246.699280	153.940000
246.792099	153.760000
246.884918	153.360000
246.977753	153.260000
247.070587	153.340000
247.163422	153.240000
247.256241	153.280000
247.349075	154.080000
247.441895	154.240000
247.534729	154.020000
247.627563	154.180000
247.720383	154.580000
247.813217	154.120000
247.906052	154.000000
247.998886	153.920000
248.091736	153.620000
248.184570	153.200000
248.277405	153.440000
248.370239	154.440000
248.463074	155.360000
248.555908	155.560000
248.648743	155.660000
248.741592	156.000000
248.834427	155.060000
248.927261	153.940000
249.020111	154.580000
249.112946	154.940000
249.205795	154.060000
249.298630	154.180000
249.391495	154.520000
249.484344	154.020000
249.577179	154.020000
249.670029	154.720000
249.762878	155.460000
249.855728	155.460000
249.948563	155.480000
250.041412	154.360000
250.134262	154.380000
250.227112	154.180000
250.319962	154.120000
250.412827	154.060000
250.505692	153.940000
250.598541	153.900000
250.691391	153.280000
250.784241	153.540000
250.877106	153.720000
250.969955	154.220000
251.062805	154.740000
251.155670	155.260000
251.248520	155.060000
251.341385	155.140000
251.434235	154.980000
251.527100	154.120000
251.619965	153.480000
251.712814	154.040000
251.805695	154.120000
251.898560	154.500000
251.991425	155.060000
252.084290	155.320000
252.177155	154.660000
252.270020	154.220000
252.362885	154.020000
252.455750	154.040000
252.548615	153.900000
252.641479	153.960000
252.734360	153.920000
252.827240	153.580000
252.920105	153.680000
253.012970	153.540000
253.105850	153.460000
253.198715	153.120000
253.291595	153.340000
253.384460	152.600000
253.477341	152.520000
253.570221	152.780000
253.663086	152.780000
253.755966	153.580000
253.848846	153.880000
253.941727	154.260000
254.034592	153.980000
254.127472	153.700000
254.220367	153.540000
254.313248	153.480000
254.406128	153.180000
254.499008	153.480000
254.591904	154.800000
254.684784	155.000000
254.777664	154.940000
254.870544	154.740000
254.963440	154.440000
255.056335	153.720000
255.149216	153.140000
255.242111	153.620000
255.334991	154.200000
255.427887	154.400000
255.520767	154.760000
255.613663	155.480000
255.706558	155.200000
255.799438	154.860000
255.892334	154.500000
255.985229	154.140000
256.078125	153.400000
256.171021	153.220000
256.263916	153.780000
256.356812	154.260000
256.449707	154.600000
256.542603	154.400000
256.635498	154.940000
256.728394	154.580000
256.821289	154.200000
256.914215	154.300000
257.007080	154.620000
257.100006	154.520000
257.192932	155.040000
257.285828	155.340000
257.378723	154.640000
257.471619	154.500000
257.564545	153.920000
257.657440	153.640000
257.750336	154.100000
257.843262	154.280000
257.936157	155.680000
258.029053	156.140000
258.121979	155.820000
258.214874	155.320000
258.307800	155.260000
258.400696	153.840000
258.493622	153.840000
258.586517	153.380000
258.679443	153.500000
258.772339	153.000000
258.865265	152.860000
258.958160	152.060000
259.051086	153.220000
259.144012	152.980000
259.236938	154.340000
259.329834	154.520000
259.422791	154.700000
259.515717	153.800000
259.608612	153.700000
259.701538	153.340000
259.794464	153.320000
259.887390	153.480000
259.980316	153.540000
260.073212	153.420000
260.166138	152.640000
260.259064	153.000000
260.351990	153.880000
260.444916	154.200000
260.537842	154.600000
260.630768	155.280000
260.723694	154.940000
260.816620	154.440000
260.909546	154.080000
261.002472	153.700000
261.095398	152.920000
261.188354	152.840000
261.281281	152.600000
261.374207	152.660000
261.467133	153.420000
261.560089	154.040000
261.653015	153.740000
261.745972	154.400000
261.838867	154.960000
261.931824	155.040000
262.024780	154.500000
262.117706	155.260000
262.210663	155.260000
262.303589	154.980000
262.396515	154.840000
262.489471	156.060000
262.582397	155.380000
262.675354	154.760000
262.768280	154.580000
262.861237	154.480000
262.954163	154.180000
263.047119	154.640000
263.140045	154.420000
263.233002	154.640000
263.325958	154.400000
263.418884	153.800000
263.511841	153.540000
263.604797	153.800000
263.697723	153.740000
263.790680	153.840000
263.883636	154.180000
263.976593	154.040000
264.069550	154.060000
264.162476	153.740000
264.255463	153.540000
264.348419	153.460000
264.441376	153.940000
264.534332	153.520000
264.627289	153.660000
264.720245	154.200000
264.813202	153.660000
264.906158	153.440000
264.999115	154.340000
265.092072	154.240000
265.185028	154.440000
265.277985	154.740000
265.370941	154.900000
265.463898	154.260000
265.556854	154.100000
265.649811	153.380000
265.742798	153.680000
265.835754	153.560000
265.928711	154.020000
266.021667	154.080000
266.114655	154.320000
266.207611	154.180000
266.300568	153.940000
266.393585	153.360000
266.486511	153.800000
266.579498	153.120000
266.672485	153.260000
266.765442	153.080000
266.858429	153.500000
266.951385	153.380000
267.044342	153.700000
267.137329	153.500000
267.230316	153.900000
267.323273	153.640000
267.416260	154.040000
267.509216	153.980000
267.602203	153.840000
267.695160	154.440000
267.788147	154.580000
267.881134	153.840000
267.974091	154.260000
268.067078	154.140000
268.160065	153.320000
268.253052	153.320000
268.346008	153.580000
268.438995	152.900000
268.531982	153.120000
268.624969	153.300000
268.717987	153.500000
268.810944	153.400000
268.903961	153.640000
268.996948	153.160000
269.089905	153.600000
269.182892	153.740000
269.275879	154.240000
269.368866	154.240000
269.461853	154.740000
269.554871	154.460000
269.647858	154.120000
269.740845	154.380000
269.833832	154.600000
269.926819	154.540000
270.019806	154.480000
270.112793	154.240000
270.205811	154.240000
270.298798	154.260000
270.391785	154.760000
270.484772	154.580000
270.577789	154.800000
270.670776	153.980000
270.763763	153.700000
270.856750	153.200000
270.949768	152.980000
271.042786	152.940000
271.135773	153.360000
271.228790	153.780000
271.321808	153.580000
271.414795	153.400000
271.507782	153.040000
271.600800	152.400000
271.693817	152.360000
271.786804	152.620000
271.879822	153.160000
271.972809	153.220000
272.065826	154.320000
272.158844	153.940000
272.251831	154.840000
272.344849	154.780000
272.437866	154.680000
272.530853	154.040000
272.623871	154.480000
272.716888	153.020000
272.809906	153.160000
272.902893	153.180000
272.995911	152.760000
273.088928	152.440000
273.181946	153.360000
273.274963	153.260000
273.367981	153.400000
273.460999	153.700000
273.554047	154.240000
273.647003	154.440000
273.740051	154.220000
273.833069	155.000000
273.926086	155.220000
274.019135	154.920000
274.112152	154.460000
274.205170	154.800000
274.298187	154.520000
274.391205	153.880000
274.484222	153.740000
274.577240	153.400000
274.670258	153.020000
274.763306	153.120000
274.856323	153.880000
274.949341	153.840000
275.042358	154.600000
275.135406	154.680000
275.228424	154.200000
275.321442	153.900000
275.414490	153.860000
275.507507	153.900000
275.600525	154.360000
275.693573	154.160000
275.786591	154.060000
275.879669	154.220000
275.972656	153.760000
276.065735	153.180000
276.158752	153.780000
276.251801	154.400000
276.344818	154.740000
276.437866	154.880000
276.530884	154.880000
276.623932	154.300000
276.716980	154.420000
276.809998	154.100000
276.903046	154.100000
276.996094	155.120000
277.089111	155.580000
277.182159	155.720000
277.275208	155.480000
277.368256	155.480000
277.461304	154.860000
277.554321	154.400000
277.647369	153.880000
277.740417	154.220000
277.833466	154.000000
277.926514	153.680000
278.019562	154.460000
278.112610	154.200000
278.205688	154.000000
278.298706	154.480000
278.391785	154.520000
278.484833	153.880000
278.577881	153.900000
278.670929	154.180000
278.763977	153.760000
278.857025	154.120000
278.950073	154.080000
279.043121	153.700000
279.136169	153.720000
279.229248	153.560000
279.322296	153.680000
279.415344	153.680000
279.508392	153.940000
279.601440	153.760000
279.694519	153.840000
279.787567	153.660000
279.880615	153.520000
279.973694	153.280000
280.066742	153.200000
280.159790	153.300000
280.252869	152.800000
280.345917	153.320000
280.438995	153.380000
280.532074	153.340000
280.625122	153.920000
280.718201	155.060000
280.811279	154.880000
280.904327	155.060000
280.997406	155.220000
281.090454	154.920000
281.183533	153.940000
281.276581	153.880000
281.369659	153.640000
281.462738	153.720000
281.555786	153.780000
281.648865	153.880000
281.741943	153.780000
281.835022	154.500000
281.928070	154.220000
282.021149	154.020000
282.114227	154.140000
282.207306	154.240000
282.300385	154.240000
282.393433	154.440000
282.486511	154.420000
282.579590	154.920000
282.672668	155.100000
282.765747	154.500000
282.858856	154.200000
282.951904	154.160000
283.045013	154.160000
283.138062	154.060000
283.231171	154.760000
283.324249	155.340000
283.417328	155.560000
283.510406	155.100000
283.603485	155.280000
283.696564	154.560000
283.789642	154.140000
283.882751	153.800000
283.975830	154.620000
284.068909	154.180000
284.161987	154.800000
284.255066	154.280000
284.348175	154.260000
284.441254	153.600000
284.534332	154.060000
284.627441	153.760000
284.720520	154.080000
284.813599	154.300000
284.906708	154.420000
284.999786	153.840000
285.092896	153.480000
285.185974	154.500000
285.279053	153.880000
285.372192	153.900000
285.465240	154.680000
285.558380	154.860000
285.651459	154.180000
285.744568	155.400000
285.837677	154.840000
285.930756	154.720000
286.023865	154.620000
286.116943	154.320000
286.210052	153.920000
286.303162	154.240000
286.396240	153.960000
286.489349	153.980000
286.582458	154.280000
286.675568	153.780000
286.768646	153.620000
286.861755	153.920000
286.954865	154.740000
287.047974	154.180000
287.141083	154.260000
287.234161	154.200000
287.327271	153.900000
287.420380	154.120000
287.513519	154.180000
287.606598	154.520000
287.699738	155.000000
287.792816	155.060000
287.885956	154.660000
287.979034	154.620000
288.072174	154.460000
288.165283	154.200000
288.258392	154.080000
288.351501	153.360000
288.444611	153.600000
288.537720	153.840000
288.630859	153.600000
288.723969	154.020000
288.817078	154.560000
288.910187	154.740000
289.003296	154.300000
289.096436	154.080000
289.189545	153.680000
289.282654	153.100000
289.375763	153.420000
289.468903	153.980000
289.562012	154.560000
289.655121	154.360000
289.748260	154.940000
289.841400	155.100000
289.934509	154.900000
290.027649	154.900000
290.120728	155.220000
290.213898	154.960000
290.306976	154.720000
290.400146	154.580000
290.493256	154.080000
290.586395	154.160000
290.679535	154.640000
290.772644	154.280000
290.865784	153.800000
290.958893	154.000000
291.052032	153.740000
291.145172	153.620000
291.238281	153.320000
291.331421	153.380000
291.424561	153.940000
291.517670	153.800000
291.610809	153.740000
291.703949	153.840000
291.797089	154.500000
291.890228	153.820000
291.983337	154.080000
292.076477	154.040000
292.169617	154.440000
292.262756	154.040000
292.355927	154.080000
292.449036	153.660000
292.542206	153.660000
292.635315	153.620000
292.728485	154.060000
292.821625	153.940000
292.914764	155.160000
293.007904	155.080000
293.101044	155.300000
293.194183	154.980000
293.287323	154.920000
293.380463	154.000000
293.473602	153.980000
293.566742	154.120000
293.659882	154.340000
293.753021	154.940000
293.846191	155.000000
293.939331	154.680000
294.032471	154.120000
294.125610	153.760000
294.218781	153.980000
294.311920	154.260000
294.405060	154.600000
294.498230	154.820000
294.591370	155.180000
294.684540	154.040000
294.777679	153.620000
294.870850	153.520000
294.963959	153.200000
295.057159	152.960000
295.150299	153.820000
295.243469	153.380000
295.336609	153.160000
295.429779	153.260000
295.522919	153.540000
295.616089	153.480000
295.709229	154.340000
295.802399	154.440000
295.895569	154.460000
295.988708	154.300000
296.081879	153.980000
296.175018	153.420000
296.268188	153.300000
296.361359	153.520000
296.454529	153.820000
296.547668	154.060000
296.640839	154.360000
296.734009	154.340000
296.827179	154.500000
296.920319	154.220000
297.013519	153.940000
297.106659	154.440000
297.199860	154.320000
297.292999	154.280000
297.386200	153.860000
297.479309	153.580000
297.572510	153.240000
297.665680	153.300000
297.758850	153.140000
297.852020	153.580000
297.945190	153.720000
298.038361	153.220000
298.131531	154.300000
298.224701	153.900000
298.317871	153.420000
298.411072	153.240000
298.504242	153.360000
298.597412	152.520000
298.690582	152.960000
298.783752	153.180000
298.876923	153.780000
298.970093	153.960000
299.063293	154.380000
299.156464	154.800000
299.249634	155.240000
299.342834	155.240000
299.436005	155.680000
299.529205	155.280000
299.622345	154.740000
299.715576	153.720000
299.808716	153.180000
299.901917	153.000000
299.995117	153.380000
300.088287	153.640000
300.181488	154.080000
300.274658	154.280000
300.367828	154.280000
300.461029	154.040000
300.554199	154.160000
300.647400	154.000000
300.740601	154.760000
300.833771	154.180000
300.926971	154.400000
301.020142	154.060000
301.113342	154.100000
301.206512	153.820000
301.299713	154.280000
301.392914	154.020000
301.486084	154.200000
301.579285	154.320000
301.672516	154.480000
301.765686	154.000000
301.858887	153.720000
301.952057	153.920000
302.045288	153.900000
302.138458	153.560000
302.231659	153.840000
302.324860	153.920000
302.418060	153.520000
302.511261	153.240000
302.604462	153.520000
302.697662	153.080000
302.790863	153.020000
302.884064	152.800000
302.977264	153.120000
303.070465	152.880000
303.163666	153.880000
303.256866	154.360000
303.350067	154.640000
303.443268	154.540000
303.536469	154.800000
303.629669	154.100000
303.722870	153.980000
303.816071	153.620000
303.909271	153.740000
304.002472	152.820000
304.095673	152.680000
304.188934	152.140000
304.282104	153.560000
304.375336	153.740000
304.468506	154.000000
304.561768	153.980000
304.654968	154.560000
304.748169	153.260000
304.841370	152.860000
304.934601	153.440000
305.027802	153.220000
305.121002	152.780000
305.214233	153.200000
305.307434	153.540000
305.400665	154.140000
305.493866	154.260000
305.587097	154.520000
305.680298	154.120000
305.773499	154.740000
305.866730	154.400000
305.959930	155.280000
306.053162	155.620000
306.146393	155.340000
306.239594	154.440000
306.332825	154.120000
306.426025	154.200000
306.519287	153.680000
306.612488	154.140000
306.705719	153.920000
306.798920	154.020000
306.892181	153.260000
306.985352	152.920000
307.078613	152.200000
307.171844	152.680000
307.265045	152.240000
307.358276	152.020000
307.451508	152.720000
307.544739	153.860000
307.637970	153.560000
307.731201	153.600000
307.824402	154.780000
307.917633	154.840000
308.010864	154.920000
308.104095	155.460000
308.197327	155.660000
308.290558	154.860000
308.383789	154.400000
308.477020	153.640000
308.570251	152.940000
308.663483	152.500000
308.756714	152.380000
308.849976	152.260000
308.943176	153.100000
309.036438	152.900000
309.129639	152.760000
309.222900	152.960000
309.316101	153.040000
309.409393	152.460000
309.502625	152.660000
309.595856	153.280000
309.689087	153.400000
309.782318	153.620000
309.875580	153.760000
309.968811	154.100000
310.062042	153.560000
310.155273	153.540000
310.248535	153.840000
310.341766	153.860000
310.434998	153.620000
310.528259	153.720000
310.621490	153.860000
310.714722	153.200000
310.807983	153.080000
310.901215	153.160000
310.994476	153.420000
311.087708	152.960000
311.181000	153.540000
311.274200	152.960000
311.367462	153.040000
311.460693	152.680000
311.553986	153.600000
311.647186	153.540000
311.740479	154.660000
311.833710	154.400000
311.926971	154.640000
312.020203	153.860000
312.113464	153.600000
312.206726	153.060000
312.299957	153.480000
312.393219	153.900000
312.486481	154.240000
312.579712	154.340000
312.672974	154.280000
312.766235	153.980000
312.859497	153.600000
312.952759	153.320000
313.045990	154.040000
313.139252	153.660000
313.232513	154.080000
313.325775	154.340000
313.419037	154.340000
313.512299	153.540000
313.605530	154.240000
313.698822	154.140000
313.792053	154.180000
313.885345	153.780000
313.978577	154.080000
314.071869	153.180000
314.165131	153.020000
314.258392	152.980000
314.351654	153.160000
314.444916	152.380000
314.538177	153.340000
314.631439	154.060000
314.724701	153.840000
314.817993	153.700000
314.911255	154.380000
315.004517	153.820000
315.097778	153.260000
315.191040	153.840000
315.284302	154.300000
315.377594	153.820000
315.470856	154.140000
315.564117	153.700000
315.657379	152.980000
315.750671	152.620000
315.843933	153.300000
315.937195	152.680000
316.030518	152.480000
316.123749	152.340000
316.217041	153.180000
316.310303	153.080000
316.403595	153.760000
316.496857	154.280000
316.590149	155.220000
316.683411	154.620000
316.776703	154.380000
316.869965	154.260000
316.963257	154.200000
317.056519	153.200000
317.149811	153.020000
317.243073	152.920000
317.336365	152.740000
317.429626	153.080000
317.522919	153.500000
317.616180	153.380000
317.709473	153.340000
317.802765	153.320000
317.896027	153.220000
317.989319	153.640000
318.082611	153.700000
318.175873	153.260000
318.269165	153.440000
318.362488	153.280000
318.455750	152.880000
318.549042	153.540000
318.642303	154.340000
318.735626	154.020000
318.828888	154.260000
318.922211	153.960000
319.015472	154.140000
319.108765	153.320000
319.202057	153.020000
319.295349	152.960000
319.388641	153.160000
319.481934	152.740000
319.575226	153.100000
319.668518	153.580000
319.761810	153.860000
319.855103	153.760000
319.948395	153.880000
320.041687	153.680000
320.134979	153.620000
320.228271	153.140000
320.321564	152.980000
320.414856	152.560000
320.508148	152.660000
320.601440	152.460000
320.694763	152.540000
320.788025	153.620000
320.881348	153.840000
320.974640	153.780000
321.067963	153.220000
321.161224	153.080000
321.254547	152.000000
321.347839	152.420000
321.441162	152.340000
321.534454	153.160000
321.627747	153.020000
321.721069	153.660000
321.814362	153.820000
321.907654	154.220000
322.000946	154.320000
322.094269	155.160000
322.187561	154.780000
322.280884	154.860000
322.374176	154.980000
322.467468	155.180000
322.560791	154.860000
322.654083	155.520000
322.747406	155.280000
322.840698	155.340000
322.934021	155.540000
323.027344	155.760000
323.120636	155.220000
323.213959	155.180000
323.307251	154.860000
323.400574	154.180000
323.493866	153.500000
323.587219	153.540000
323.680511	153.720000
323.773834	153.680000
323.867157	154.280000
323.960449	154.600000
324.053772	154.340000
324.147095	153.940000
324.240387	154.400000
324.333710	154.040000
324.427032	154.180000
324.520355	154.480000
324.613647	154.120000
324.706970	153.740000
324.800293	153.780000
324.893616	153.840000
324.986938	153.880000
325.080231	153.840000
325.173553	154.320000
325.266876	154.640000
325.360199	154.540000
325.453522	154.220000
325.546875	154.300000
325.640167	154.060000
325.733521	154.200000
325.826813	154.520000
325.920166	154.260000
326.013489	154.200000
326.106812	153.740000
326.200134	152.900000
326.293457	152.180000
326.386780	152.780000
326.480103	152.800000
326.573425	152.840000
326.666748	153.200000
326.760071	153.560000
326.853424	153.740000
326.946747	153.940000
327.040070	154.860000
327.133392	154.640000
327.226715	153.820000
327.320068	153.240000
327.413391	153.860000
327.506714	152.860000
327.600037	152.960000
327.693390	153.600000
327.786713	153.700000
327.880066	153.280000
327.973358	153.720000
328.066742	154.520000
328.160034	154.620000
328.253418	155.040000
328.346710	154.640000
328.440063	154.360000
328.533417	153.580000
328.626740	153.980000
328.720093	153.420000
328.813416	153.420000
328.906769	153.600000
329.000092	153.800000
329.093445	153.460000
329.186768	153.560000
329.280121	154.260000
329.373444	154.600000
329.466797	154.660000
329.560120	154.640000
329.653473	154.860000
329.746796	154.320000
329.840149	153.700000
329.933502	153.420000
330.026825	153.440000
330.120178	153.360000
330.213562	153.340000
330.306854	153.480000
330.400238	153.760000
330.493561	153.760000
330.586945	154.140000
330.680237	154.320000
330.773621	154.720000
330.866974	154.560000
330.960327	154.560000
331.053680	154.340000
331.147003	154.620000
331.240356	154.660000
331.333710	154.780000
331.427063	154.360000
331.520416	154.040000
331.613770	153.640000
331.707123	153.580000
331.800476	153.500000
331.893829	154.740000
331.987152	154.900000
332.080505	154.840000
332.173859	154.600000
332.267212	154.160000
332.360565	153.320000
332.453918	153.020000
332.547333	152.820000
332.640656	152.840000
332.734039	153.240000
332.827362	152.980000
332.920746	153.600000
333.014069	153.960000
333.107452	154.560000
333.200806	154.780000
333.294159	154.820000
333.387543	154.220000
333.480896	153.720000
333.574249	152.920000
333.667603	152.680000
333.760956	152.960000
333.854340	153.080000
333.947693	153.420000
334.041046	153.700000
334.134430	153.840000
334.227783	153.580000
334.321136	153.420000
334.414520	153.040000
334.507874	153.340000
334.601227	153.220000
334.694611	153.180000
334.787964	153.460000
334.881348	154.060000
334.974701	153.880000
335.068085	153.700000
335.161438	154.060000
335.254822	153.920000
335.348175	153.820000
335.441559	153.200000
335.534943	153.780000
335.628296	153.700000
335.721680	153.760000
335.815033	153.900000
335.908417	154.400000
336.001770	153.900000
336.095154	153.420000
336.188538	153.120000
336.281891	152.580000
336.375275	152.160000
336.468658	152.020000
336.562012	152.280000
336.655396	152.640000
336.748779	153.320000
336.842133	153.720000
336.935516	154.200000
337.028900	154.020000
337.122284	153.780000
337.215637	153.540000
337.309021	153.280000
337.402435	152.840000
337.495789	152.860000
337.589203	153.040000
337.682526	152.980000
337.775940	153.380000
337.869324	153.600000
337.962708	153.380000
338.056091	153.800000
338.149475	153.280000
338.242859	153.160000
338.336243	153.120000
338.429626	153.560000
338.523010	153.400000
338.616394	153.700000
338.709778	154.000000
338.803162	154.300000
338.896545	154.220000
338.989929	153.760000
339.083313	154.060000
339.176697	153.580000
339.270081	153.100000
339.363464	153.460000
339.456848	153.780000
339.550232	153.360000
339.643616	153.360000
339.737030	153.500000
339.830383	153.120000
339.923828	153.300000
340.017181	153.500000
340.110596	153.680000
340.203949	153.500000
340.297363	152.940000
340.390778	152.800000
340.484161	152.840000
340.577545	152.680000
340.670959	153.040000
340.764343	153.540000
340.857727	153.420000
340.951111	153.200000
341.044525	153.520000
341.137909	153.000000
341.231293	152.800000
341.324707	152.720000
341.418091	153.340000
341.511505	153.400000
341.604889	153.900000
341.698303	154.320000
341.791687	154.280000
341.885071	153.780000
341.978485	153.060000
342.071899	152.920000
342.165283	153.000000
342.258698	153.360000
342.352081	154.020000
342.445496	154.780000
342.538879	154.740000
342.632324	154.280000
342.725708	154.040000
342.819122	153.340000
342.912506	152.960000
343.005920	153.120000
343.099335	154.300000
343.192719	154.340000
343.286133	154.360000
343.379547	154.720000
343.472931	154.920000
343.566345	154.020000
343.659760	154.280000
343.753143	154.080000
343.846558	153.580000
343.939972	153.260000
344.033386	153.820000
344.126770	153.340000
344.220184	153.560000
344.313599	154.080000
344.407043	154.020000
344.500427	153.620000
344.593872	154.140000
344.687225	153.760000
344.780670	153.400000
344.874054	153.620000
344.967499	153.700000
345.060913	153.620000
345.154327	153.900000
345.247742	153.480000
345.341156	152.940000
345.434570	152.780000
345.527985	152.900000
345.621399	153.140000
345.714813	153.320000
345.808228	153.800000
345.901642	153.660000
345.995056	152.840000
346.088470	152.760000
346.181885	152.780000
346.275299	152.440000
346.368713	152.260000
346.462128	152.400000
346.555573	152.620000
346.648987	153.220000
346.742401	153.040000
346.835815	153.700000
346.929260	153.800000
347.022644	153.560000
347.116119	153.480000
347.209503	154.260000
347.302948	154.760000
347.396362	155.280000
347.489807	155.320000
347.583221	155.840000
347.676636	155.320000
347.770050	154.260000
347.863495	153.680000
347.956909	153.960000
348.050323	153.200000
348.143768	153.400000
348.237183	152.980000
348.330597	153.560000
348.424042	153.520000
348.517456	153.680000
348.610901	153.820000
348.704315	154.160000
348.797760	153.660000
348.891174	152.940000
348.984619	152.300000
349.078033	152.560000
349.171448	153.280000
349.264923	153.120000
349.358337	153.360000
349.451782	153.680000
349.545197	152.920000
349.638641	152.060000
349.732086	151.720000
349.825500	152.180000
349.918945	152.140000
350.012390	152.860000
350.105804	153.500000
350.199249	154.000000
350.292664	154.300000
350.386108	154.320000
350.479553	154.700000
350.572968	154.560000
350.666412	154.860000
350.759857	154.420000
350.853302	155.220000
350.946716	154.340000
351.040161	154.440000
351.133606	154.460000
351.227081	154.220000
351.320465	154.540000
351.413940	154.680000
351.507355	154.640000
351.600830	154.340000
351.694244	154.280000
351.787720	153.620000
351.881104	153.900000
351.974579	154.000000
352.067993	154.860000
352.161469	154.900000
352.254883	154.420000
352.348358	153.900000
352.441803	153.600000
352.535248	152.800000
352.628693	153.300000
352.722137	153.320000
352.815582	153.740000
352.909027	153.960000
353.002472	153.980000
353.095917	153.800000
353.189362	154.320000
353.282806	154.220000
353.376251	153.880000
353.469696	153.260000
353.563141	154.080000
353.656586	153.560000
353.750061	153.100000
353.843475	153.360000
353.936981	154.320000
354.030396	153.240000
354.123871	153.460000
354.217285	154.480000
354.310760	154.480000
354.404175	154.360000
354.497681	154.100000
354.591095	154.320000
354.684570	153.240000
354.777985	153.040000
354.871490	152.640000
354.964935	153.440000
355.058380	153.280000
355.151855	153.140000
355.245300	153.680000
355.338745	154.120000
355.432220	153.700000
355.525665	153.340000
355.619110	154.160000
355.712585	153.860000
355.806030	153.600000
355.899475	153.320000
355.992950	153.840000
356.086426	154.020000
356.179871	153.840000
356.273346	153.900000
356.366791	154.140000
356.460266	154.320000
356.553711	153.720000
356.647186	153.700000
356.740631	153.680000
356.834106	153.320000
356.927551	153.280000
357.021027	153.600000
357.114471	153.840000
357.207947	153.840000
357.301422	154.460000
357.394867	154.400000
357.488342	154.480000
357.581818	154.520000
357.675262	154.580000
357.768738	154.320000
357.862213	153.560000
357.955658	153.600000
358.049133	153.320000
358.142609	153.640000
358.236053	153.340000
358.329529	153.740000
358.423035	153.760000
358.516449	153.540000
358.609955	153.900000
358.703400	154.660000
358.796906	154.580000
358.890350	153.920000
358.983826	154.380000
359.077271	153.440000
359.170776	152.960000
359.264221	152.800000
359.357727	153.120000
359.451172	153.420000
359.544647	153.940000
359.638123	154.060000
359.731598	154.480000
359.825073	154.800000
359.918549	154.520000
360.012024	154.400000
360.105499	153.960000
360.198975	153.940000
360.292450	153.780000
360.385925	153.720000
360.479401	153.360000
360.572876	153.900000
360.666351	154.260000
360.759857	154.100000
360.853302	154.140000
360.946808	154.020000
361.040253	153.820000
361.133759	153.100000
361.227203	153.480000
361.320709	153.040000
361.414154	153.420000
361.507660	153.940000
361.601105	154.560000
361.694641	154.840000
361.788086	155.040000
361.881592	155.440000
361.975067	154.780000
362.068542	155.020000
362.162018	154.560000
362.255524	154.280000
362.348999	154.020000
362.442474	154.260000
362.535950	153.560000
362.629456	153.460000
362.722931	153.400000
362.816406	153.700000
362.909882	154.120000
363.003387	153.980000
363.096863	154.680000
363.190338	154.800000
363.283875	154.460000
363.377319	154.180000
363.470825	154.720000
363.564301	153.460000
363.657806	153.800000
363.751282	153.520000
363.844788	154.420000
363.938232	153.820000
364.031769	154.880000
364.125214	155.080000
364.218750	155.780000
364.312225	154.320000
364.405731	154.460000
364.499207	153.800000
364.592712	153.340000
364.686188	152.900000
364.779694	153.400000
364.873169	153.440000
364.966675	153.220000
365.060150	153.240000
365.153656	153.500000
365.247131	153.140000
365.340637	153.540000
365.434143	154.340000
365.527618	154.640000
365.621155	153.860000
365.714600	154.180000
365.808136	154.240000
365.901611	153.440000
365.995117	152.860000
366.088593	153.080000
366.182129	152.940000
366.275604	152.800000
366.369110	153.240000
366.462585	153.520000
366.556122	154.400000
366.649567	154.580000
366.743103	154.460000
366.836609	154.120000
366.930115	154.540000
367.023590	154.120000
367.117096	153.760000
367.210602	153.540000
367.304108	154.380000
367.397614	154.440000
367.491119	154.500000
367.584595	154.920000
367.678101	155.420000
367.771606	154.760000
367.865112	154.400000
367.958649	153.780000
368.052124	153.340000
368.145660	152.920000
368.239136	153.900000
368.332672	154.000000
368.426147	154.440000
368.519684	154.600000
368.613159	154.880000
368.706696	153.580000
368.800171	153.460000
368.893707	153.200000
368.987183	153.260000
369.080719	153.200000
369.174225	153.680000
369.267731	153.960000
369.361237	154.020000
369.454742	153.860000
369.548248	154.400000
369.641754	153.960000
369.735260	153.420000
369.828766	152.640000
369.922272	153.480000
370.015808	152.840000
370.109314	152.980000
370.202820	153.260000
370.296356	154.520000
370.389832	153.920000
370.483368	153.540000
370.576874	153.380000
370.670410	153.600000
370.763885	152.720000
370.857422	152.640000
370.950928	152.520000
371.044464	153.280000
371.137939	153.280000
371.231476	153.680000
371.324982	154.180000
371.418518	154.860000
371.512024	154.720000
371.605560	154.380000
371.699066	154.520000
371.792572	154.220000
371.886108	154.300000
371.979614	153.940000
372.073120	154.400000
372.166656	154.400000
372.260162	154.440000
372.353668	154.080000
372.447205	154.100000
372.540710	154.160000
372.634277	154.040000
372.727753	154.000000
372.821320	154.060000
372.914795	153.900000
373.008362	153.380000
373.101837	153.760000
373.195404	153.440000
373.288879	153.140000
373.382446	153.960000
373.475922	154.120000
373.569489	154.500000
373.662964	155.180000
373.756531	155.680000
373.850037	155.520000
373.943573	155.520000
374.037109	154.220000
374.130615	153.920000
374.224152	153.580000
374.317657	153.220000
374.411194	153.940000
374.504730	154.020000
374.598236	154.140000
374.691772	153.960000
374.785309	154.180000
374.878815	152.700000
374.972351	153.360000
375.065887	153.220000
375.159454	154.420000
375.252930	153.820000
375.346497	154.780000
375.440002	155.100000
375.533569	154.740000
375.627045	153.600000
375.720612	153.940000
375.814117	153.920000
375.907684	153.180000
376.001160	153.120000
376.094727	153.160000
376.188232	153.840000
376.281799	153.580000
376.375336	154.140000
376.468872	154.560000
376.562408	154.600000
376.655914	153.940000
376.749451	154.300000
376.842987	154.300000
376.936523	154.140000
377.030060	154.240000
377.123596	154.680000
377.217133	153.720000
377.310669	153.500000
377.404205	153.900000
377.497772	154.400000
377.591278	153.700000
377.684845	154.960000
377.778351	155.180000
377.871918	155.060000
377.965424	154.200000
378.058990	154.120000
378.152496	153.600000
378.246063	153.800000
378.339569	153.840000
378.433136	154.200000
378.526642	154.380000
378.620209	154.340000
378.713745	153.500000
378.807312	153.740000
378.900848	153.700000
378.994385	154.000000
379.087921	153.580000
379.181458	154.180000
379.274994	153.100000
379.368530	152.880000
379.462097	152.880000
379.555634	153.480000
379.649170	152.820000
379.742706	153.340000
379.836273	153.420000
379.929810	153.360000
380.023376	152.980000
380.116882	153.160000
380.210449	153.040000
380.303986	152.820000
380.397552	152.380000
380.491058	152.800000
380.584656	152.500000
380.678162	152.760000
380.771729	153.020000
380.865265	154.140000
380.958832	154.020000
381.052368	154.600000
381.145935	154.680000
381.239471	155.080000
381.333008	154.340000
381.426575	154.300000
381.520111	154.620000
381.613647	155.140000
381.707214	154.680000
381.800751	154.320000
381.894318	154.620000
381.987854	154.040000
382.081421	153.360000
382.174988	153.580000
382.268524	153.540000
382.362091	153.120000
382.455627	153.940000
382.549194	153.560000
382.642731	152.800000
382.736298	152.900000
382.829834	152.820000
382.923401	153.280000
383.016937	153.620000
383.110504	154.460000
383.204041	154.480000
383.297607	155.020000
383.391174	153.660000
383.484741	154.460000
383.578278	153.940000
383.671844	153.940000
383.765411	152.980000
383.858948	153.800000
383.952515	153.460000
384.046051	154.220000
384.139618	154.740000
384.233185	155.580000
384.326721	155.420000
384.420288	155.720000
384.513855	155.580000
384.607422	155.420000
384.700989	155.200000
384.794525	154.600000
384.888123	154.400000
384.981659	154.360000
385.075226	154.120000
385.168762	154.000000
385.262360	154.360000
385.355896	153.300000
385.449463	153.100000
385.542999	152.980000
385.636597	153.760000
385.730164	153.540000
385.823730	153.800000
385.917267	153.620000
386.010834	154.020000
386.104401	153.640000
386.197968	153.920000
386.291534	154.220000
386.385101	154.400000
386.478668	154.660000
386.572235	154.320000
386.665802	153.600000
386.759338	153.220000
386.852905	153.000000
386.946472	152.320000
387.040070	152.440000
387.133606	152.920000
387.227203	152.940000
387.320740	153.400000
387.414337	153.340000
387.507874	153.300000
387.601471	153.300000
387.695007	153.160000
387.788605	152.800000
387.882141	153.080000
387.975739	152.900000
388.069275	152.840000
388.162872	153.260000
388.256439	153.200000
388.350037	152.780000
388.443604	152.780000
388.537170	152.640000
388.630737	153.020000
388.724304	153.140000
388.817871	153.240000
388.911438	153.440000
389.005005	153.900000
389.098602	153.900000
389.192169	153.660000
389.285736	154.120000
389.379333	153.720000
389.472870	153.120000
389.566467	152.940000
389.660034	153.040000
389.753632	152.580000
389.847168	153.060000
389.940765	153.460000
390.034332	153.680000
390.127930	153.280000
390.221466	153.360000
390.315063	153.080000
390.408630	152.120000
390.502228	151.060000
390.595795	151.660000
390.689362	151.960000
390.782959	152.340000
390.876526	153.600000
390.970093	154.100000
391.063690	154.540000
391.157257	154.440000
391.250824	154.840000
391.344421	154.120000
391.437988	154.400000
391.531555	154.360000
391.625153	154.400000
391.718750	154.360000
391.812317	154.500000
391.905914	153.980000
391.999481	153.860000
392.093079	153.960000
392.186615	154.120000
392.280243	154.280000
392.373779	154.540000
392.467407	154.980000
392.560944	154.880000
392.654572	153.940000
392.748108	153.880000
392.841736	154.080000
392.935303	153.240000
393.028900	152.940000
393.122467	153.240000
393.216064	153.000000
393.309631	152.640000
393.403229	152.540000
393.496796	152.640000
393.590393	151.960000
393.683990	152.200000
393.777557	152.640000
393.871155	152.780000
393.964722	153.120000
394.058350	153.480000
394.151917	153.380000
394.245514	152.880000
394.339081	153.360000
394.432678	153.360000
394.526245	153.440000
394.619873	153.300000
394.713409	153.740000
394.807037	153.200000
394.900604	153.500000
394.994202	153.720000
395.087769	154.240000
395.181396	153.980000
395.274994	154.680000
395.368561	153.800000
395.462158	154.040000
395.555756	153.380000
395.649353	153.640000
395.742920	152.900000
395.836517	153.580000
395.930115	152.520000
396.023712	152.560000
396.117279	152.680000
396.210876	152.420000
396.304474	152.300000
396.398071	152.980000
396.491669	153.460000
396.585266	153.100000
396.678833	153.080000
396.772461	153.120000
396.866028	152.840000
396.959656	152.760000
397.053223	152.980000
397.146851	153.140000
397.240417	153.000000
397.334015	153.940000
397.427582	153.780000
397.521210	153.620000
397.614807	154.000000
397.708405	154.160000
397.802002	153.600000
397.895599	154.280000
397.989197	154.460000
398.082794	154.240000
398.176392	154.240000
398.269989	154.420000
398.363586	154.220000
398.457184	154.860000
398.550781	155.360000
398.644379	155.180000
398.737976	155.140000
398.831573	155.820000
398.925201	155.920000
399.018768	157.420000
399.112396	160.160000
399.205963	164.640000
399.299591	171.500000
399.393158	181.220000
399.486786	196.280000
399.580353	220.080000
399.673981	265.180000
399.767578	348.360000
399.861206	489.060000
399.954773	686.880000
400.048401	913.740000
400.141998	1119.240000
400.235596	1249.340000
400.329193	1269.060000
400.422791	1168.680000
400.516418	984.080000
400.610016	767.340000
400.703613	567.760000
400.797211	407.800000
400.890808	300.660000
400.984436	236.560000
401.078033	201.220000
401.171631	181.860000
401.265259	172.560000
401.358826	167.380000
401.452484	163.960000
401.546051	162.100000
401.639679	160.660000
401.733246	159.520000
401.826904	158.140000
401.920471	156.480000
402.014099	155.600000
402.107697	155.240000
402.201324	154.820000
402.294891	154.800000
402.388550	155.500000
402.482147	155.480000
402.575745	155.260000
402.669373	155.060000
402.762970	154.760000
402.856567	154.400000
402.950195	154.560000
403.043793	154.760000
403.137390	155.520000
403.231018	154.740000
403.324615	155.640000
403.418243	154.960000
403.511841	155.560000
403.605469	154.920000
403.699066	155.740000
403.792694	155.340000
403.886292	155.620000
403.979919	155.140000
404.073517	154.940000
404.167145	155.380000
404.260712	155.260000
404.354370	155.100000
404.447937	155.240000
404.541595	155.340000
404.635162	154.980000
404.728821	155.340000
404.822418	154.800000
404.916046	154.320000
405.009644	154.780000
405.103271	154.940000
405.196899	154.300000
405.290497	154.600000
405.384125	155.000000
405.477722	154.400000
405.571350	153.640000
405.664948	154.120000
405.758575	154.060000
405.852203	153.300000
405.945801	153.720000
406.039429	154.120000
406.133057	153.720000
406.226654	154.000000
406.320312	154.280000
406.413879	154.120000
406.507538	154.260000
406.601135	153.620000
406.694763	153.900000
406.788361	153.740000
406.882019	153.520000
406.975586	153.700000
407.069244	154.600000
407.162872	154.360000
407.256470	154.320000
407.350098	154.140000
407.443726	153.800000
407.537323	153.160000
407.630951	153.240000
407.724579	153.100000
407.818207	153.780000
407.911804	153.540000
408.005432	153.760000
408.099060	154.120000
408.192688	154.540000
408.286285	154.280000
408.379913	154.080000
408.473572	154.400000
408.567169	153.500000
408.660828	153.520000
408.754395	153.120000
408.848053	153.440000
408.941650	153.500000
409.035309	153.280000
409.128906	153.300000
409.222565	153.520000
409.316132	153.840000
409.409790	153.360000
409.503387	153.560000
409.597046	153.620000
409.690674	153.780000
409.784302	153.680000
409.877930	153.740000
409.971558	154.260000
410.065186	154.080000
410.158783	153.940000
410.252411	153.800000
410.346039	154.100000
410.439667	153.980000
410.533295	154.180000
410.626923	154.340000
410.720551	153.820000
410.814209	154.200000
410.907806	154.120000
411.001465	153.240000
411.095062	153.400000
411.188721	153.740000
411.282318	153.120000
411.375977	152.760000
411.469574	153.380000
411.563232	152.800000
411.656830	153.120000
411.750488	152.980000
411.844086	153.080000
411.937744	153.220000
412.031372	153.540000
412.125000	153.200000
412.218628	153.420000
412.312256	154.100000
412.405884	154.420000
412.499512	154.200000
412.593170	154.460000
412.686798	154.520000
412.780426	154.020000
412.874054	153.780000
412.967682	153.900000
413.061310	154.380000
413.154968	154.300000
413.248566	154.300000
413.342224	154.060000
413.435852	153.980000
413.529510	153.360000
413.623108	152.900000
413.716766	152.820000
413.810364	153.320000
413.904022	153.420000
413.997650	153.180000
414.091309	154.180000
414.184906	154.160000
414.278564	153.800000
414.372192	153.800000
414.465851	154.220000
414.559479	153.500000
414.653107	154.560000
414.746735	154.320000
414.840393	154.360000
414.934021	154.300000
415.027649	154.160000
415.121277	153.320000
415.214935	153.980000
415.308563	153.880000
415.402191	153.200000
415.495850	153.380000
415.589478	153.460000
415.683136	152.800000
415.776733	152.900000
415.870422	153.820000
415.964020	153.200000
416.057678	153.040000
416.151306	153.280000
416.244965	153.360000
416.338562	152.940000
416.432251	154.000000
416.525848	154.800000
416.619507	155.160000
416.713165	155.400000
416.806793	155.340000
416.900421	155.120000
416.994080	154.340000
417.087708	154.240000
417.181366	153.640000
417.274994	153.800000
417.368622	154.180000
417.462280	154.640000
417.555908	154.280000
417.649567	154.120000
417.743195	153.900000
417.836853	153.460000
417.930481	153.360000
418.024170	153.500000
418.117767	154.140000
418.211426	154.560000
418.305054	154.900000
418.398712	154.020000
418.492340	154.180000
418.585999	154.440000
418.679626	154.260000
418.773285	153.960000
418.866913	154.980000
418.960571	155.020000
419.054230	154.880000
419.147858	155.020000
419.241516	155.240000
419.335144	154.660000
419.428802	154.480000
419.522461	154.220000
419.616089	153.640000
419.709747	153.940000
419.803375	154.080000
419.897034	153.840000
419.990662	153.780000
420.084320	154.580000
420.177979	154.520000
420.271606	155.020000
420.365295	155.740000
420.458893	156.140000
420.552582	156.200000
420.646210	155.900000
420.739868	155.200000
420.833496	154.560000
420.927155	153.860000
421.020782	153.380000
421.114471	152.920000
421.208069	153.400000
421.301758	153.740000
421.395386	154.180000
421.489044	154.020000
421.582703	154.420000
421.676361	154.500000
421.769989	154.020000
421.863647	154.140000
421.957306	154.260000
422.050934	154.440000
422.144592	154.360000
422.238251	154.400000
422.331909	154.220000
422.425537	154.080000
422.519196	153.940000
422.612854	153.620000
422.706543	153.680000
422.800140	153.880000
422.893829	153.760000
422.987457	153.320000
423.081146	153.380000
423.174744	154.120000
423.268433	153.460000
423.362061	153.680000
423.455750	154.000000
423.549347	154.100000
423.643036	153.120000
423.736664	154.160000
423.830353	154.300000
423.924011	154.740000
424.017639	154.200000
424.111298	154.540000
424.204956	153.940000
424.298615	153.820000
424.392273	153.260000
424.485931	153.680000
424.579559	153.600000
424.673218	153.620000
424.766876	153.760000
424.860535	153.340000
424.954193	153.260000
425.047882	153.600000
425.141510	153.460000
425.235199	153.500000
425.328796	153.860000
425.422485	154.100000
425.516113	153.600000
425.609802	153.740000
425.703430	153.740000
425.797119	153.640000
425.890747	153.580000
425.984436	153.720000
426.078064	153.940000
426.171753	153.920000
426.265411	153.800000
426.359070	154.060000
426.452728	154.440000
426.546356	153.900000
426.640015	154.020000
426.733673	154.260000
426.827332	153.900000
426.920990	154.540000
427.014648	154.620000
427.108307	154.460000
427.201965	154.900000
427.295624	155.320000
427.389282	154.380000
427.482941	154.940000
427.576630	155.100000
427.670258	154.560000
427.763947	154.160000
427.857574	154.100000
427.951263	153.700000
428.044922	153.180000
428.138611	153.380000
428.232239	154.040000
428.325928	154.520000
428.419556	154.940000
428.513245	155.140000
428.606903	155.420000
428.700562	154.580000
428.794220	153.760000
428.887878	153.180000
428.981537	153.780000
429.075195	153.360000
429.168854	153.940000
429.262512	154.440000
429.356201	154.680000
429.449860	154.180000
429.543518	154.360000
429.637177	154.500000
429.730835	154.240000
429.824493	154.220000
429.918182	154.460000
430.011810	154.120000
430.105530	153.080000
430.199158	153.580000
430.292847	153.480000
430.386475	153.500000
430.480164	153.700000
430.573792	153.760000
430.667511	153.560000
430.761139	153.780000
430.854828	153.860000
430.948456	153.920000
431.042145	154.880000
431.135834	154.640000
431.229492	154.860000
431.323151	154.860000
431.416809	154.800000
431.510468	154.660000
431.604156	154.700000
431.697815	154.700000
431.791473	154.140000
431.885132	153.680000
431.978821	153.920000
432.072479	154.260000
432.166138	154.560000
432.259827	154.860000
432.353485	155.520000
432.447174	155.120000
432.540802	154.780000
432.634491	154.600000
432.728149	154.820000
432.821838	155.180000
432.915466	154.860000
433.009186	155.200000
433.102814	154.720000
433.196503	154.340000
433.290131	154.040000
433.383850	154.660000
433.477509	154.460000
433.571167	155.340000
433.664856	155.840000
433.758514	156.300000
433.852173	156.120000
433.945862	156.040000
434.039520	155.720000
434.133179	155.160000
434.226868	154.700000
434.320526	154.120000
434.414185	154.740000
434.507874	154.220000
434.601562	154.680000
434.695221	154.400000
434.788910	154.940000
434.882538	154.720000
434.976257	154.700000
435.069885	154.520000
435.163574	154.840000
435.257233	154.440000
435.350922	154.180000
435.444580	153.920000
435.538269	153.860000
435.631897	154.200000
435.725616	154.880000
435.819275	155.660000
435.912964	156.480000
436.006622	157.240000
436.100311	157.000000
436.193970	156.240000
436.287628	155.560000
436.381317	154.960000
436.474976	153.920000
436.568665	153.560000
436.662323	153.720000
436.756012	153.760000
436.849670	153.860000
436.943390	154.200000
437.037018	154.320000
437.130737	154.520000
437.224365	154.140000
437.318085	154.320000
437.411713	154.220000
437.505432	154.380000
437.599060	154.940000
437.692780	155.480000
437.786407	155.380000
437.880127	155.700000
437.973755	155.520000
438.067474	154.720000
438.161133	154.680000
438.254822	155.060000
438.348480	154.340000
438.442169	154.780000
438.535828	155.280000
438.629517	154.780000
438.723175	153.940000
438.816864	154.680000
438.910553	154.000000
439.004211	153.720000
439.097900	153.580000
439.191559	153.820000
439.285248	153.020000
439.378906	153.440000
439.472626	153.040000
439.566284	153.340000
439.659973	153.600000
439.753632	153.640000
439.847321	154.080000
439.940979	154.500000
440.034698	154.620000
440.128326	154.200000
440.222046	153.820000
440.315674	152.700000
440.409393	152.540000
440.503082	152.280000
440.596741	152.440000
440.690430	153.340000
440.784088	153.700000
440.877777	153.200000
440.971466	153.500000
441.065125	153.360000
441.158813	152.980000
441.252502	152.980000
441.346161	153.460000
441.439850	153.640000
441.533539	153.620000
441.627197	153.900000
441.720886	153.760000
441.814606	153.900000
441.908234	153.960000
442.001953	153.720000
442.095612	153.660000
442.189301	154.020000
442.282959	154.000000
442.376678	152.920000
442.470306	154.140000
442.564026	153.920000
442.657684	153.740000
442.751404	153.620000
442.845032	154.780000
442.938751	153.600000
443.032440	154.060000
443.126099	153.860000
443.219788	154.260000
443.313477	153.900000
443.407166	154.320000
443.500824	154.020000
443.594513	154.120000
443.688202	153.740000
443.781891	153.400000
443.875549	153.100000
443.969238	153.160000
444.062927	153.340000
444.156647	153.520000
444.250275	154.160000
444.343994	154.380000
444.437653	154.400000
444.531372	154.180000
444.625031	153.680000
444.718719	152.780000
444.812378	152.840000
444.906097	152.540000
444.999756	152.160000
445.093445	152.520000
445.187103	153.060000
445.280823	153.640000
445.374512	153.520000
445.468201	153.780000
445.561859	153.680000
445.655548	153.580000
445.749237	152.840000
445.842926	152.820000
445.936615	153.340000
446.030304	153.040000
446.123962	153.620000
446.217651	153.560000
446.311340	154.020000
446.405029	153.640000
446.498749	153.820000
446.592407	152.940000
446.686096	152.980000
446.779755	152.920000
446.873474	153.120000
446.967133	153.400000
447.060852	153.460000
447.154510	153.400000
447.248230	153.160000
447.341858	153.160000
447.435577	152.740000
447.529236	152.700000
447.622955	152.780000
447.716644	152.960000
447.810333	153.300000
447.904022	153.760000
447.997711	153.860000
448.091400	154.200000
448.185059	154.440000
448.278748	154.580000
448.372437	154.160000
448.466125	154.380000
448.559814	154.140000
448.653503	154.500000
448.747192	154.300000
448.840912	154.940000
448.934570	154.840000
449.028290	155.180000
449.121948	154.600000
449.215637	153.920000
449.309296	153.680000
449.403015	153.780000
449.496674	153.380000
449.590393	153.660000
449.684052	153.620000
449.777771	154.040000
449.871429	153.240000
449.965149	153.200000
450.058838	153.220000
450.152527	153.860000
450.246216	153.400000
450.339905	153.840000
450.433594	153.900000
450.527283	154.520000
450.620972	154.120000
450.714661	154.060000
450.808350	154.380000
450.902039	154.620000
450.995728	153.860000
451.089417	153.720000
451.183105	153.720000
451.276794	154.040000
451.370514	153.160000
451.464172	152.620000
451.557892	152.820000
451.651550	153.060000
451.745270	152.460000
451.838928	152.740000
451.932648	153.260000
452.026306	153.500000
452.120026	153.060000
452.213684	153.800000
452.307404	153.980000
452.401062	153.900000
452.494781	154.140000
452.588470	154.080000
452.682159	153.480000
452.775848	153.560000
452.869537	152.920000
452.963226	152.220000
453.056915	152.260000
453.150604	152.160000
453.244293	152.220000
453.337982	153.160000
453.431671	153.480000
453.525360	154.080000
453.619049	154.160000
453.712769	154.340000
453.806427	153.800000
453.900146	153.560000
453.993805	153.180000
454.087555	153.400000
454.181213	153.280000
454.274933	153.280000
454.368591	153.360000
454.462311	153.060000
454.555969	152.620000
454.649689	153.220000
454.743347	152.800000
454.837067	153.220000
454.930756	154.060000
455.024445	154.600000
455.118134	154.340000
455.211853	154.860000
455.305542	154.500000
455.399231	154.040000
455.492920	153.760000
455.586609	153.560000
455.680298	153.920000
455.773987	153.720000
455.867676	153.720000
455.961365	154.000000
456.055084	153.860000
456.148773	153.440000
456.242493	153.300000
456.336151	153.200000
456.429871	153.380000
456.523529	153.920000
456.617249	153.680000
456.710907	154.760000
456.804626	154.720000
456.898315	153.980000
456.992035	153.600000
457.085693	153.620000
457.179413	152.440000
457.273102	153.400000
457.366791	153.740000
457.460480	154.080000
457.554199	154.940000
457.647888	155.640000
457.741577	155.100000
457.835266	155.060000
457.928955	155.060000
458.022644	154.880000
458.116364	155.060000
458.210052	154.760000
458.303741	155.040000
458.397461	154.300000
458.491119	153.760000
458.584839	153.400000
458.678528	153.020000
458.772247	152.560000
458.865906	152.820000
458.959625	153.880000
459.053284	153.800000
459.147003	153.860000
459.240692	154.600000
459.334412	154.800000
459.428070	153.840000
459.521790	153.900000
459.615479	154.020000
459.709198	154.100000
459.802887	153.800000
459.896576	153.640000
459.990265	153.860000
460.083954	154.120000
460.177673	153.820000
460.271362	153.940000
460.365051	154.100000
460.458740	153.740000
460.552429	153.340000
460.646149	153.180000
460.739838	152.820000
460.833527	153.260000
460.927246	153.220000
461.020905	153.240000
461.114655	153.320000
461.208313	153.660000
461.302032	152.900000
461.395691	153.020000
461.489441	153.040000
461.583099	152.660000
461.676819	152.260000
461.770477	152.880000
461.864197	152.600000
461.957916	152.720000
462.051605	152.300000
462.145294	153.460000
462.238983	153.020000
462.332703	153.380000
462.426392	153.740000
462.520081	154.160000
462.613770	153.380000
462.707489	153.580000
462.801178	153.520000
462.894867	153.160000
462.988556	153.260000
463.082275	153.540000
463.175964	153.400000
463.269684	153.520000
463.363342	153.660000
463.457092	152.920000
463.550751	153.060000
463.644470	153.360000
463.738129	153.340000
463.831879	153.720000
463.925537	154.920000
464.019257	154.680000
464.112946	154.540000
464.206665	154.240000
464.300323	153.460000
464.394043	152.800000
464.487762	152.920000
464.581451	153.340000
464.675140	153.560000
464.768829	154.040000
464.862549	154.380000
464.956238	154.500000
465.049927	154.300000
465.143646	154.260000
465.237335	153.960000
465.331024	154.280000
465.424713	154.000000
465.518433	153.780000
465.612152	153.400000
465.705811	153.640000
465.799561	153.340000
465.893219	153.140000
465.986938	153.060000
466.080597	153.060000
466.174347	153.620000
466.268005	153.560000
466.361725	153.560000
466.455414	153.660000
466.549133	153.680000
466.642792	153.220000
466.736542	153.020000
466.830231	153.200000
466.923920	153.280000
467.017609	153.360000
467.111328	153.060000
467.205017	153.240000
467.298706	152.980000
467.392426	152.820000
467.486115	153.240000
467.579803	152.900000
467.673523	153.040000
467.767212	153.540000
467.860901	153.620000
467.954651	153.600000
468.048309	154.300000
468.142029	154.040000
468.235718	153.940000
468.329437	153.540000
468.423096	153.360000
468.516846	153.080000
468.610504	152.640000
468.704224	151.860000
468.797913	152.180000
468.891632	152.420000
468.985291	152.560000
469.079010	153.140000
469.172729	153.440000
469.266418	153.840000
469.360107	153.840000
469.453827	153.500000
469.547516	153.700000
469.641205	154.200000
469.734924	154.120000
469.828613	154.580000
469.922302	154.920000
470.016022	154.540000
470.109711	154.420000
470.203430	153.920000
470.297150	152.600000
470.390808	152.760000
470.484558	153.140000
470.578217	153.400000
470.671936	153.840000
470.765625	155.120000
470.859344	154.580000
470.953003	154.560000
471.046753	153.820000
471.140411	153.100000
471.234131	153.100000
471.327820	153.920000
471.421539	153.560000
471.515228	153.500000
471.608948	154.100000
471.702637	153.360000
471.796326	152.720000
471.890045	153.260000
471.983734	153.700000
472.077423	153.440000
472.171143	153.940000
472.264832	154.080000
472.358521	153.720000
472.452240	153.600000
472.545929	154.340000
472.639648	154.020000
472.733337	154.420000
472.827057	154.420000
472.920746	154.520000
473.014465	154.660000
473.108124	154.960000
473.201874	154.860000
473.295532	154.920000
473.389252	155.420000
473.482941	155.300000
473.576660	154.580000
473.670319	154.200000
473.764069	154.200000
473.857727	154.020000
473.951477	153.900000
474.045166	155.000000
474.138855	155.080000
474.232574	155.000000
474.326263	154.880000
474.419952	154.980000
474.513672	154.600000
474.607361	154.300000
474.701050	154.740000
474.794769	154.920000
474.888458	154.840000
474.982178	154.620000
475.075867	154.740000
475.169586	154.540000
475.263275	154.380000
475.356995	154.160000
475.450653	153.840000
475.544403	153.500000
475.638062	153.980000
475.731812	153.500000
475.825470	153.420000
475.919189	153.980000
476.012878	154.300000
476.106598	153.500000
476.200256	154.100000
476.294006	154.040000
476.387695	153.740000
476.481384	153.620000
476.575104	153.840000
476.668793	153.340000
476.762512	153.080000
476.856201	153.640000
476.949890	153.360000
477.043610	152.860000
477.137299	153.120000
477.230988	153.400000
477.324707	153.020000
477.418396	154.100000
477.512146	154.200000
477.605804	154.020000
477.699524	154.340000
477.793213	153.980000
477.886932	153.460000
477.980591	153.140000
478.074341	153.000000
478.167999	152.160000
478.261749	152.320000
478.355408	152.100000
478.449127	152.940000
478.542816	154.120000
478.636536	155.260000
478.730225	155.640000
478.823944	155.920000
478.917633	155.740000
479.011322	155.080000
479.105042	154.540000
479.198730	154.540000
479.292450	154.360000
479.386139	154.600000
479.479828	154.660000
479.573547	154.700000
479.667267	154.220000
479.760925	154.060000
479.854675	153.760000
479.948334	153.560000
480.042084	153.000000
480.135742	153.440000
480.229462	153.440000
480.323151	153.500000
480.416870	153.100000
480.510529	153.720000
480.604279	153.140000
480.697937	153.500000
480.791656	153.060000
480.885345	152.960000
480.979065	152.720000
481.072754	153.560000
481.166473	153.880000
481.260132	154.180000
481.353882	154.300000
481.447540	154.240000
481.541260	153.960000
481.635010	153.300000
481.728668	153.200000
481.822388	153.220000
481.916077	153.420000
482.009796	153.380000
482.103485	153.840000
482.197205	154.020000
482.290863	154.620000
482.384613	154.300000
482.478271	153.760000
482.571991	153.540000
482.665680	153.580000
482.759399	153.940000
482.853058	154.520000
482.946808	154.540000
483.040466	154.360000
483.134216	153.980000
483.227875	153.160000
483.321594	153.440000
483.415283	153.540000
483.509003	153.500000
483.602661	153.560000
483.696411	153.900000
483.790070	153.340000
483.883789	153.660000
483.977478	154.260000
484.071198	154.300000
484.164917	154.020000
484.258606	153.560000
484.352325	153.760000
484.445984	153.720000
484.539734	153.820000
484.633392	153.480000
484.727142	154.280000
484.820801	153.920000
484.914520	153.540000
485.008209	153.760000
485.101929	154.400000
485.195587	153.940000
485.289337	153.920000
485.382996	154.000000
485.476715	153.880000
485.570404	154.340000
485.664124	154.200000
485.757782	154.500000
485.851532	154.160000
485.945190	154.060000
486.038910	153.440000
486.132599	154.200000
486.226318	153.760000
486.319977	153.800000
486.413727	154.120000
486.507446	153.860000
486.601105	153.020000
486.694855	153.220000
486.788513	153.240000
486.882233	152.800000
486.975922	152.960000
487.069641	152.920000
487.163300	152.660000
487.257050	153.900000
487.350708	153.620000
487.444427	153.360000
487.538116	153.540000
487.631836	153.680000
487.725494	153.040000
487.819214	153.560000
487.912903	153.580000
488.006622	154.240000
488.100281	154.260000
488.194031	153.880000
488.287689	154.020000
488.381409	154.860000
488.475098	154.040000
488.568817	154.180000
488.662476	154.060000
488.756226	153.660000
488.849945	152.300000
488.943604	152.660000
489.037354	152.840000
489.131012	152.820000
489.224731	152.660000
489.318390	153.040000
489.412140	152.900000
489.505798	152.340000
489.599518	152.400000
489.693207	152.720000
489.786926	152.900000
489.880585	152.820000
489.974335	153.440000
490.067993	154.500000
490.161713	155.100000
490.255371	155.780000
490.349121	156.080000
490.442780	155.660000
490.536499	154.460000
490.630188	154.140000
490.723907	153.380000
490.817566	153.200000
490.911285	153.200000
491.004974	153.280000
491.098694	152.800000
491.192413	153.700000
491.286102	153.800000
491.379822	154.040000
491.473480	154.300000
491.567200	154.220000
491.660889	153.320000
491.754608	153.280000
491.848267	153.080000
491.941986	152.640000
492.035675	152.900000
492.129395	153.600000
492.223053	153.300000
492.316772	153.360000
492.410461	153.540000
492.504181	153.860000
492.597839	153.280000
492.691559	153.540000
492.785248	153.880000
492.878967	154.100000
492.972626	153.720000
493.066345	153.740000
493.160034	153.080000
493.253754	152.740000
493.347412	152.340000
493.441132	152.740000
493.534882	153.480000
493.628540	154.120000
493.722260	154.300000
493.815918	154.560000
493.909668	154.860000
494.003326	155.000000
494.097046	154.760000
494.190704	154.440000
494.284454	154.500000
494.378113	154.300000
494.471832	153.800000
494.565491	153.900000
494.659210	153.980000
494.752899	153.960000
494.846619	153.580000
494.940277	153.680000
495.033997	153.760000
495.127686	153.600000
495.221405	153.560000
495.315063	153.500000
495.408783	153.380000
495.502441	153.380000
495.596191	153.720000
495.689850	153.540000
495.783569	154.240000
495.877228	154.080000
495.970947	153.920000
496.064697	153.800000
496.158356	154.760000
496.252075	154.200000
496.345734	154.420000
496.439453	155.380000
496.533142	155.460000
496.626862	155.360000
496.720520	155.780000
496.814240	155.420000
496.907898	154.660000
497.001617	154.620000
497.095306	153.820000
497.189026	153.320000
497.282684	153.740000
497.376404	154.140000
497.470062	153.920000
497.563782	154.200000
497.657471	154.020000
497.751190	153.840000
497.844849	153.320000
497.938568	153.760000
498.032227	153.560000
498.125946	153.820000
498.219635	153.340000
498.313354	153.860000
498.407074	153.420000
498.500732	153.720000
498.594452	153.940000
498.688110	154.180000
498.781830	153.680000
498.875519	153.600000
498.969238	153.460000
499.062897	153.400000
499.156616	153.720000
499.250275	153.740000
499.343994	153.660000
499.437653	153.500000
499.531372	153.280000
499.625061	153.840000
499.718781	154.040000
499.812439	154.360000
499.906158	154.380000
499.999817	154.380000
500.093536	153.640000
500.187195	153.880000
500.280914	153.980000
500.374573	154.080000
500.468323	153.960000
500.561981	154.260000
500.655701	153.760000
500.749420	153.400000
500.843079	153.480000
500.936798	153.500000
501.030457	153.500000
501.124176	153.860000
501.217834	154.100000
501.311554	154.160000
501.405212	154.160000
501.498962	153.500000
501.592621	152.960000
501.686340	153.160000
501.779999	153.140000
501.873718	153.400000
501.967377	153.740000
502.061096	154.280000
502.154755	153.720000
502.248474	153.820000
502.342133	153.840000
502.435852	154.140000
502.529510	154.580000
502.623230	155.220000
502.716888	154.400000
502.810608	154.360000
502.904266	154.360000
502.997986	153.620000
503.091705	153.000000
503.185364	153.380000
503.279083	153.300000
503.372772	153.080000
503.466492	152.900000
503.560150	153.460000
503.653870	153.860000
503.747528	153.760000
503.841248	153.880000
503.934906	154.320000
504.028625	153.780000
504.122284	153.880000
504.216003	154.480000
504.309662	153.960000
504.403381	154.280000
504.497040	154.440000
504.590759	153.960000
504.684418	153.800000
504.778137	154.400000
504.871796	154.260000
504.965515	154.280000
505.059174	154.420000
505.152893	153.620000
505.246521	153.240000
505.340240	152.820000
505.433899	152.840000
505.527618	153.040000
505.621338	153.720000
505.714996	153.600000
505.808716	153.520000
505.902374	154.220000
505.996094	154.160000
506.089752	153.800000
506.183472	154.180000
506.277130	154.440000
506.370850	154.220000
506.464508	154.240000
506.558228	154.600000
506.651886	154.380000
506.745605	154.380000
506.839264	154.160000
506.932983	153.940000
507.026611	153.500000
507.120331	153.960000
507.213989	153.300000
507.307709	153.240000
507.401367	153.660000
507.495087	154.860000
507.588745	154.340000
507.682465	155.500000
507.776123	155.380000
507.869843	155.460000
507.963531	154.880000
508.057190	155.420000
508.150909	154.200000
508.244568	154.360000
508.338287	153.900000
508.431946	153.540000
508.525665	153.000000
508.619324	153.460000
508.713013	153.500000
508.806671	153.840000
508.900391	154.900000
508.994049	155.320000
509.087769	155.100000
509.181427	155.260000
509.275146	154.720000
509.368774	153.380000
509.462494	152.960000
509.556152	153.480000
509.649872	153.760000
509.743530	154.280000
509.837250	154.620000
509.930878	154.720000
510.024597	154.300000
510.118256	153.720000
510.211975	153.580000
510.305695	153.340000
510.399353	153.560000
510.493042	153.980000
510.586700	154.320000
510.680420	155.000000
510.774078	155.160000
510.867798	155.300000
510.961426	155.080000
511.055145	154.960000
511.148804	154.180000
511.242523	154.560000
511.336151	154.440000
511.429871	154.660000
511.523529	154.420000
511.617249	154.280000
511.710876	153.940000
511.804596	153.280000
511.898254	153.160000
511.991974	153.540000
512.085632	153.160000
512.179321	153.340000
512.272949	153.980000
512.366699	154.440000
512.460327	154.180000
512.554077	155.560000
512.647766	155.260000
512.741394	154.960000
512.835144	155.140000
512.928772	154.940000
513.022461	154.520000
513.116150	154.280000
513.209839	155.020000
513.303467	154.240000
513.397217	153.940000
513.490845	153.260000
513.584595	152.980000
513.678223	152.260000
513.771912	151.960000
513.865601	152.500000
513.959290	152.700000
514.052917	153.140000
514.146667	153.820000
514.240295	153.980000
514.333984	154.160000
514.427673	154.000000
514.521362	154.540000
514.614990	153.900000
514.708740	154.400000
514.802368	154.280000
514.896057	154.420000
514.989746	154.980000
515.083435	154.740000
515.177124	154.860000
515.270752	154.580000
515.364502	154.780000
515.458130	154.340000
515.551819	154.380000
515.645508	153.940000
515.739197	154.160000
515.832825	154.220000
515.926575	153.740000
516.020203	154.040000
516.113892	154.520000
516.207520	154.260000
516.301270	154.040000
516.394897	154.020000
516.488586	154.360000
516.582275	154.100000
516.675964	153.780000
516.769592	153.720000
516.863281	154.420000
516.956970	154.440000
517.050659	154.360000
517.144287	154.620000
517.238037	154.720000
517.331665	153.820000
517.425354	153.180000
517.519043	153.040000
517.612732	153.660000
517.706421	153.520000
517.800049	153.440000
517.893738	153.400000
517.987427	153.440000
518.081116	153.100000
518.174744	152.800000
518.268433	153.320000
518.362122	154.280000
518.455811	154.100000
518.549438	154.540000
518.643127	155.580000
518.736816	155.380000
518.830505	154.340000
518.924133	154.460000
519.017822	154.240000
519.111511	153.780000
519.205200	154.140000
519.298828	154.440000
519.392517	154.120000
519.486206	153.980000
519.579895	154.020000
519.673523	153.620000
519.767212	153.800000
519.860901	154.640000
519.954590	154.640000
520.048279	154.080000
520.141907	153.980000
520.235596	154.880000
520.329224	154.800000
520.422974	154.780000
520.516602	155.140000
520.610291	154.580000
520.703918	153.980000
520.797607	153.740000
520.891296	153.520000
520.984985	153.700000
521.078613	154.900000
521.172302	154.200000
521.265930	154.920000
521.359680	155.680000
521.453308	155.520000
521.546997	155.080000
521.640625	155.240000
521.734314	154.440000
521.827942	153.940000
521.921692	154.120000
522.015320	154.160000
522.109009	154.060000
522.202698	153.880000
522.296326	153.680000
522.390015	153.920000
522.483704	153.960000
522.577393	154.040000
522.671021	153.840000
522.764709	153.500000
522.858337	153.520000
522.952026	153.640000
523.045654	154.500000
523.139404	155.460000
523.233032	155.940000
523.326721	155.660000
523.420349	155.520000
523.514038	154.660000
523.607666	154.660000
523.701355	154.200000
523.795044	154.000000
523.888733	154.000000
523.982361	154.260000
524.076050	153.980000
524.169678	154.380000
524.263367	154.200000
524.356995	153.920000
524.450684	153.620000
524.544373	153.140000
524.638062	153.020000
524.731750	153.240000
524.825378	153.460000
524.919067	153.280000
525.012695	153.460000
525.106384	153.360000
525.200012	153.680000
525.293701	153.380000
525.387329	153.980000
525.481018	154.160000
525.574646	154.200000
525.668396	153.660000
525.762024	154.120000
525.855713	154.020000
525.949341	153.440000
526.043030	153.640000
526.136658	153.660000
526.230347	153.260000
526.323975	152.860000
526.417664	152.980000
526.511292	152.860000
526.604980	153.140000
526.698608	153.200000
526.792297	153.300000
526.885925	153.860000
526.979614	154.140000
527.073303	153.900000
527.166931	153.980000
527.260620	154.280000
527.354309	154.280000
527.447998	154.080000
527.541626	154.000000
527.635315	153.960000
527.728943	154.380000
527.822632	154.340000
527.916260	154.380000
528.009949	154.900000
528.103577	154.720000
528.197266	153.700000
528.290894	153.980000
528.384583	153.880000
528.478210	153.440000
528.571899	153.700000
528.665527	154.380000
528.759216	154.120000
528.852844	154.280000
528.946533	154.680000
529.040161	154.660000
529.133850	154.300000
529.227478	154.340000
529.321167	154.720000
529.414856	154.760000
529.508484	155.120000
529.602173	154.800000
529.695801	154.380000
529.789490	154.020000
529.883057	153.760000
529.976746	153.640000
530.070374	154.460000
530.164062	154.620000
530.257690	154.800000
530.351379	155.080000
530.445007	154.780000
530.538696	154.040000
530.632324	154.140000
530.726013	153.960000
530.819641	153.480000
530.913330	153.640000
531.006958	153.840000
531.100647	153.840000
531.194275	153.620000
531.287964	153.500000
531.381592	153.140000
531.475220	153.280000
531.568848	153.380000
531.662537	153.220000
531.756226	153.860000
531.849854	153.880000
531.943542	153.660000
532.037170	152.920000
532.130859	153.580000
532.224487	153.040000
532.318176	152.860000
532.411804	153.500000
532.505432	154.260000
532.599060	154.080000
532.692749	154.260000
532.786377	154.800000
532.880066	154.080000
532.973694	153.280000
533.067383	152.880000
533.161011	152.900000
533.254639	152.960000
533.348267	152.720000
533.441956	153.180000
533.535583	153.180000
533.629272	153.420000
533.722900	152.980000
533.816589	153.300000
533.910156	153.720000
534.003845	153.460000
534.097534	153.500000
534.191162	153.960000
534.284851	154.160000
534.378479	153.740000
534.472107	154.160000
534.565735	153.780000
534.659424	153.820000
534.753052	153.780000
534.846741	153.560000
534.940369	154.160000
535.033997	154.220000
535.127625	154.060000
535.221313	154.680000
535.314941	154.560000
535.408630	153.800000
535.502197	154.120000
535.595886	154.060000
535.689514	153.620000
535.783203	154.460000
535.876831	155.060000
535.970459	155.120000
536.064087	154.860000
536.157776	154.900000
536.251404	154.580000
536.345093	153.900000
536.438721	153.340000
536.532349	153.740000
536.626038	153.660000
536.719666	153.980000
536.813293	153.780000
536.906921	154.100000
537.000610	154.180000
537.094238	154.240000
537.187866	154.060000
537.281494	154.260000
537.375183	154.300000
537.468811	154.040000
537.562439	153.840000
537.656067	153.600000
537.749756	153.760000
537.843384	154.400000
537.937012	154.820000
538.030640	154.580000
538.124329	154.620000
538.217896	154.920000
538.311584	154.420000
538.405212	153.920000
538.498901	154.540000
538.592468	155.100000
538.686157	154.660000
538.779785	154.180000
538.873413	154.040000
538.967102	153.160000
539.060730	152.300000
539.154358	152.800000
539.247986	153.060000
539.341675	153.100000
539.435242	153.500000
539.528931	154.240000
539.622559	153.640000
539.716187	154.000000
539.809814	153.900000
539.903503	153.740000
539.997070	153.180000
540.090759	153.380000
540.184387	153.300000
540.278015	153.900000
540.371643	154.280000
540.465332	154.380000
540.558899	154.340000
540.652588	154.020000
540.746216	153.760000
540.839844	154.180000
540.933472	154.140000
541.027100	154.180000
541.120728	154.420000
541.214417	154.400000
541.308044	154.420000
541.401672	154.500000
541.495300	154.420000
541.588928	154.160000
541.682617	154.040000
541.776184	153.360000
541.869873	153.580000
541.963440	154.320000
542.057129	154.380000
542.150757	154.820000
542.244385	154.680000
542.338013	154.280000
542.431641	153.420000
542.525269	153.460000
542.618958	153.760000
542.712524	154.440000
542.806213	154.180000
542.899780	154.560000
542.993469	154.320000
543.087036	153.920000
543.180725	153.120000
543.274292	153.540000
543.367981	153.580000
543.461548	153.940000
543.555237	153.840000
543.648926	154.500000
543.742493	155.500000
543.836182	155.300000
543.929749	155.160000
544.023437	155.120000
544.117004	155.040000
544.210693	154.300000
544.304260	154.580000
544.397949	154.240000
544.491516	154.660000
544.585205	154.760000
544.678772	154.240000
544.772461	154.440000
544.866028	154.680000
544.959717	154.600000
545.053284	154.060000
545.146973	154.480000
545.240540	154.240000
545.334229	154.780000
545.427795	154.760000
545.521423	155.300000
545.615051	155.220000
545.708679	155.940000
545.802307	155.700000
545.895935	155.960000
545.989624	156.540000
546.083191	156.200000
546.176880	155.640000
546.270447	154.920000
546.364136	155.240000
546.457703	154.280000
546.551331	154.640000
546.644958	154.820000
546.738586	155.460000
546.832214	154.220000
546.925842	154.120000
547.019409	154.220000
547.113098	153.680000
547.206665	153.280000
547.300354	153.780000
547.393921	154.320000
547.487549	154.700000
547.581177	154.540000
547.674805	154.980000
547.768433	154.200000
547.862061	154.180000
547.955627	153.220000
548.049316	153.860000
548.142883	153.960000
548.236572	154.720000
548.330139	154.740000
548.423767	154.980000
548.517456	154.740000
548.611023	154.820000
548.704651	154.380000
548.798279	154.380000
548.891907	155.000000
548.985474	154.920000
549.079163	154.920000
549.172729	154.680000
549.266357	154.180000
549.359985	153.980000
549.453613	153.720000
549.547180	153.200000
549.640869	153.960000
549.734436	153.900000
549.828064	154.300000
549.921631	154.220000
550.015320	153.960000
550.108887	154.020000
550.202515	154.200000
550.296143	153.600000
550.389771	153.900000
550.483337	154.280000
550.576965	154.100000
550.670593	154.560000
550.764221	154.460000
550.857849	154.100000
550.951477	154.040000
551.045105	153.840000
551.138672	153.560000
551.232300	153.400000
551.325928	153.860000
551.419556	154.040000
551.513123	154.000000
551.606750	153.620000
551.700378	153.580000
551.794006	153.400000
551.887573	153.160000
551.981201	153.640000
552.074768	153.820000
552.168457	153.560000
552.262024	154.340000
552.355652	154.620000
552.449219	154.860000
552.542847	154.740000
552.636475	154.880000
552.730103	153.980000
552.823669	153.740000
552.917297	152.940000
553.010864	153.260000
553.104553	153.760000
553.198181	153.360000
553.291748	153.720000
553.385376	154.320000
553.478943	154.000000
553.572571	153.820000
553.666199	154.500000
553.759827	154.060000
553.853394	153.100000
553.947021	153.360000
554.040588	153.400000
554.134216	153.520000
554.227783	154.300000
554.321411	155.360000
554.415039	154.920000
554.508667	155.120000
554.602234	154.960000
554.695862	154.140000
554.789429	153.720000
554.883057	153.940000
554.976624	153.700000
555.070251	153.820000
555.163818	153.760000
555.257507	153.740000
555.351074	153.880000
555.444702	154.920000
555.538330	154.280000
555.631897	154.840000
555.725525	154.720000
555.819092	154.240000
555.912720	152.880000
556.006287	153.540000
556.099915	153.040000
556.193481	153.340000
556.287109	154.120000
556.380676	153.940000
556.474304	153.880000
556.567871	154.420000
556.661499	153.780000
556.755066	153.760000
556.848694	154.400000
556.942261	154.120000
557.035889	153.900000
557.129517	154.260000
557.223145	154.600000
557.316711	154.740000
557.410339	155.020000
557.503906	155.000000
557.597473	155.260000
557.691040	154.640000
557.784668	154.300000
557.878296	154.020000
557.971863	153.860000
558.065491	153.840000
558.159058	153.660000
558.252686	154.660000
558.346252	155.560000
558.439880	155.360000
558.533447	155.000000
558.627075	154.760000
558.720642	153.880000
558.814270	153.340000
558.907837	153.400000
559.001465	153.120000
559.095032	154.020000
559.188660	154.280000
559.282227	153.800000
559.375854	154.560000
559.469360	154.580000
559.562988	154.600000
559.656555	154.380000
559.750183	154.660000
559.843750	154.280000
559.937378	154.780000
560.030945	154.320000
560.124573	0.000000
560.218140	0.000000
560.311707	0.000000
560.405334	0.000000
560.498901	0.000000
560.592529	0.000000
560.686096	0.000000
560.779724	0.000000
560.873291	0.000000
560.966858	0.000000
561.060425	0.000000
561.154053	0.000000
561.247620	0.000000
561.341248	0.000000
561.434814	0.000000
561.528381	0.000000
561.621948	0.000000
561.715576	0.000000
561.809143	0.000000
561.902771	0.000000
561.996277	0.000000
562.089905	0.000000
562.183472	0.000000
562.277100	0.000000
