Model Number: SPM-002-B   
Serial Number: 70087108
Firmware Version: 004.15.4
Exposure Time: 100000.000000us
Data Taken on: 15-01-2021 16:36:15.250
Wavelength	Amplitude
221.570786	0.000000
221.663406	0.000000
221.756027	0.000000
221.848648	0.000000
221.941269	0.000000
222.033905	0.000000
222.126526	0.000000
222.219162	0.000000
222.311798	0.000000
222.404419	0.000000
222.497055	0.000000
222.589676	0.000000
222.682312	0.000000
222.774933	0.000000
222.867569	0.000000
222.960205	0.000000
223.052841	0.000000
223.145462	0.000000
223.238098	0.000000
223.330734	0.000000
223.423386	0.000000
223.516022	0.000000
223.608658	0.000000
223.701309	0.000000
223.793945	0.000000
223.886581	0.000000
223.979218	0.000000
224.071869	0.000000
224.164505	0.000000
224.257156	0.000000
224.349792	0.000000
224.442444	0.000000
224.535095	0.000000
224.627747	0.000000
224.720398	0.000000
224.813034	0.000000
224.905685	0.000000
224.998337	153.300000
225.090988	152.880000
225.183640	152.860000
225.276291	152.600000
225.368942	152.600000
225.461594	153.460000
225.554245	153.880000
225.646912	153.600000
225.739578	154.120000
225.832230	154.820000
225.924896	153.740000
226.017548	154.180000
226.110199	154.980000
226.202866	154.300000
226.295532	153.800000
226.388184	153.660000
226.480850	152.820000
226.573517	152.140000
226.666168	152.360000
226.758835	152.860000
226.851501	153.880000
226.944183	154.340000
227.036850	154.200000
227.129517	154.540000
227.222183	154.600000
227.314850	154.180000
227.407516	154.300000
227.500198	155.300000
227.592865	154.920000
227.685532	154.360000
227.778214	154.180000
227.870880	154.140000
227.963562	154.360000
228.056229	154.940000
228.148926	155.000000
228.241592	155.660000
228.334274	155.320000
228.426956	154.660000
228.519638	154.400000
228.612305	154.060000
228.704987	153.800000
228.797668	153.860000
228.890350	153.860000
228.983032	153.380000
229.075714	154.280000
229.168396	153.860000
229.261108	153.420000
229.353790	153.480000
229.446472	153.980000
229.539169	153.700000
229.631851	153.600000
229.724533	154.040000
229.817230	154.120000
229.909912	155.040000
230.002609	154.760000
230.095306	154.780000
230.187988	154.800000
230.280685	154.220000
230.373383	152.840000
230.466095	152.620000
230.558792	152.980000
230.651474	153.060000
230.744171	153.220000
230.836868	153.380000
230.929581	154.020000
231.022278	154.060000
231.114975	154.200000
231.207672	154.260000
231.300369	154.760000
231.393082	154.760000
231.485779	154.480000
231.578506	154.200000
231.671204	154.260000
231.763916	153.860000
231.856613	153.600000
231.949326	153.900000
232.042023	153.660000
232.134735	153.840000
232.227448	153.600000
232.320160	153.780000
232.412872	153.720000
232.505585	154.740000
232.598297	154.560000
232.691010	154.620000
232.783722	154.240000
232.876450	154.840000
232.969162	154.180000
233.061874	154.180000
233.154587	153.860000
233.247314	154.380000
233.340027	153.600000
233.432739	153.920000
233.525467	153.900000
233.618179	154.440000
233.710907	153.760000
233.803635	154.740000
233.896347	154.500000
233.989090	155.100000
234.081818	155.020000
234.174545	155.280000
234.267258	154.200000
234.359985	154.280000
234.452713	154.060000
234.545441	154.160000
234.638168	153.860000
234.730896	154.420000
234.823639	154.040000
234.916367	154.260000
235.009094	154.280000
235.101822	154.480000
235.194580	154.120000
235.287308	154.340000
235.380051	153.660000
235.472778	153.940000
235.565521	154.340000
235.658249	154.140000
235.750992	154.140000
235.843719	154.100000
235.936462	153.920000
236.029205	153.420000
236.121948	153.140000
236.214691	153.520000
236.307449	154.460000
236.400192	154.000000
236.492935	153.860000
236.585678	154.020000
236.678421	153.960000
236.771164	153.180000
236.863907	154.160000
236.956665	154.480000
237.049408	156.460000
237.142151	155.700000
237.234909	156.920000
237.327652	156.460000
237.420410	156.200000
237.513153	155.000000
237.605927	155.260000
237.698669	154.000000
237.791428	153.400000
237.884186	153.780000
237.976944	153.220000
238.069702	153.500000
238.162445	153.180000
238.255203	153.460000
238.347961	153.720000
238.440720	153.720000
238.533478	153.520000
238.626266	154.020000
238.719025	154.220000
238.811783	154.160000
238.904541	154.240000
238.997314	154.200000
239.090073	153.480000
239.182831	153.640000
239.275604	154.280000
239.368362	154.060000
239.461136	154.380000
239.553909	154.520000
239.646667	154.520000
239.739441	153.720000
239.832214	154.180000
239.925003	154.140000
240.017761	155.060000
240.110535	155.360000
240.203308	155.160000
240.296082	155.020000
240.388855	154.880000
240.481628	154.580000
240.574417	154.680000
240.667191	154.860000
240.759964	154.520000
240.852737	154.460000
240.945526	154.160000
241.038315	153.620000
241.131088	153.840000
241.223877	154.140000
241.316650	153.800000
241.409439	154.260000
241.502228	153.860000
241.595001	154.080000
241.687790	153.680000
241.780579	154.040000
241.873367	154.220000
241.966141	154.520000
242.058929	153.800000
242.151718	154.460000
242.244507	154.900000
242.337311	154.000000
242.430099	154.520000
242.522903	155.060000
242.615692	154.360000
242.708481	154.160000
242.801270	154.640000
242.894073	154.440000
242.986862	154.200000
243.079651	154.720000
243.172455	154.200000
243.265244	154.420000
243.358063	153.560000
243.450867	153.720000
243.543655	153.840000
243.636459	154.160000
243.729263	154.320000
243.822067	155.200000
243.914856	155.480000
244.007660	155.220000
244.100464	155.080000
244.193268	154.360000
244.286072	153.900000
244.378876	153.660000
244.471680	153.700000
244.564499	154.080000
244.657318	155.020000
244.750122	155.360000
244.842926	154.440000
244.935745	154.840000
245.028549	154.340000
245.121368	153.700000
245.214172	153.600000
245.306992	154.520000
245.399796	154.040000
245.492615	154.400000
245.585434	154.040000
245.678253	154.220000
245.771072	153.980000
245.863892	154.560000
245.956711	154.540000
246.049530	154.520000
246.142349	154.120000
246.235168	153.820000
246.327988	153.780000
246.420807	153.560000
246.513626	153.880000
246.606445	153.880000
246.699280	153.920000
246.792099	153.680000
246.884918	153.160000
246.977753	152.700000
247.070587	152.720000
247.163422	152.920000
247.256241	152.780000
247.349075	153.560000
247.441895	153.980000
247.534729	154.040000
247.627563	153.960000
247.720383	154.440000
247.813217	154.220000
247.906052	154.280000
247.998886	154.560000
248.091736	154.640000
248.184570	154.340000
248.277405	154.300000
248.370239	155.200000
248.463074	155.700000
248.555908	155.740000
248.648743	155.540000
248.741592	155.880000
248.834427	154.880000
248.927261	153.760000
249.020111	154.220000
249.112946	154.820000
249.205795	154.160000
249.298630	154.340000
249.391495	154.340000
249.484344	153.720000
249.577179	153.360000
249.670029	153.720000
249.762878	154.020000
249.855728	154.420000
249.948563	154.680000
250.041412	153.780000
250.134262	153.940000
250.227112	154.020000
250.319962	154.200000
250.412827	154.180000
250.505692	154.080000
250.598541	153.860000
250.691391	153.300000
250.784241	153.080000
250.877106	152.960000
250.969955	153.160000
251.062805	153.860000
251.155670	154.660000
251.248520	154.520000
251.341385	155.020000
251.434235	155.220000
251.527100	154.820000
251.619965	154.020000
251.712814	154.820000
251.805695	154.560000
251.898560	154.960000
251.991425	154.940000
252.084290	155.100000
252.177155	154.160000
252.270020	153.960000
252.362885	153.560000
252.455750	153.440000
252.548615	153.040000
252.641479	153.280000
252.734360	153.040000
252.827240	153.200000
252.920105	153.440000
253.012970	153.620000
253.105850	153.320000
253.198715	153.280000
253.291595	153.400000
253.384460	152.900000
253.477341	152.760000
253.570221	153.300000
253.663086	152.960000
253.755966	153.700000
253.848846	154.100000
253.941727	154.460000
254.034592	154.360000
254.127472	154.460000
254.220367	154.040000
254.313248	153.980000
254.406128	153.660000
254.499008	153.880000
254.591904	154.700000
254.684784	155.260000
254.777664	155.300000
254.870544	155.040000
254.963440	154.880000
255.056335	154.780000
255.149216	154.020000
255.242111	154.480000
255.334991	155.140000
255.427887	155.100000
255.520767	155.060000
255.613663	155.360000
255.706558	154.440000
255.799438	154.180000
255.892334	153.920000
255.985229	153.500000
256.078125	153.260000
256.171021	153.600000
256.263916	154.080000
256.356812	154.380000
256.449707	154.800000
256.542603	154.380000
256.635498	155.040000
256.728394	154.540000
256.821289	154.180000
256.914215	154.280000
257.007080	154.460000
257.100006	154.180000
257.192932	154.660000
257.285828	155.100000
257.378723	154.680000
257.471619	154.720000
257.564545	154.180000
257.657440	154.220000
257.750336	154.700000
257.843262	154.620000
257.936157	155.800000
258.029053	155.940000
258.121979	155.840000
258.214874	155.240000
258.307800	155.240000
258.400696	153.840000
258.493622	153.860000
258.586517	153.060000
258.679443	153.380000
258.772339	153.060000
258.865265	153.180000
258.958160	152.440000
259.051086	153.420000
259.144012	153.140000
259.236938	153.880000
259.329834	153.960000
259.422791	154.440000
259.515717	153.600000
259.608612	153.280000
259.701538	153.300000
259.794464	153.060000
259.887390	153.120000
259.980316	153.460000
260.073212	153.420000
260.166138	152.280000
260.259064	152.880000
260.351990	153.640000
260.444916	153.460000
260.537842	153.980000
260.630768	154.960000
260.723694	154.780000
260.816620	154.420000
260.909546	154.340000
261.002472	153.920000
261.095398	153.560000
261.188354	153.520000
261.281281	152.960000
261.374207	153.300000
261.467133	154.040000
261.560089	154.140000
261.653015	153.740000
261.745972	154.520000
261.838867	154.920000
261.931824	154.700000
262.024780	154.520000
262.117706	155.020000
262.210663	155.020000
262.303589	154.380000
262.396515	154.240000
262.489471	155.120000
262.582397	154.660000
262.675354	153.900000
262.768280	154.020000
262.861237	154.120000
262.954163	153.800000
263.047119	154.080000
263.140045	154.200000
263.233002	154.180000
263.325958	153.740000
263.418884	153.320000
263.511841	153.400000
263.604797	153.820000
263.697723	153.880000
263.790680	153.820000
263.883636	154.300000
263.976593	154.420000
264.069550	154.360000
264.162476	154.020000
264.255463	154.180000
264.348419	153.800000
264.441376	154.140000
264.534332	153.400000
264.627289	153.860000
264.720245	154.560000
264.813202	154.200000
264.906158	153.820000
264.999115	154.620000
265.092072	154.580000
265.185028	154.640000
265.277985	155.140000
265.370941	155.200000
265.463898	154.800000
265.556854	154.500000
265.649811	153.340000
265.742798	153.300000
265.835754	153.200000
265.928711	154.340000
266.021667	154.640000
266.114655	155.200000
266.207611	155.580000
266.300568	155.120000
266.393585	154.240000
266.486511	154.380000
266.579498	153.800000
266.672485	153.580000
266.765442	153.540000
266.858429	153.640000
266.951385	153.360000
267.044342	153.780000
267.137329	153.620000
267.230316	154.140000
267.323273	153.880000
267.416260	154.660000
267.509216	154.320000
267.602203	154.320000
267.695160	154.340000
267.788147	154.440000
267.881134	153.200000
267.974091	153.880000
268.067078	153.520000
268.160065	153.520000
268.253052	153.260000
268.346008	153.860000
268.438995	153.440000
268.531982	153.660000
268.624969	153.460000
268.717987	153.880000
268.810944	153.680000
268.903961	153.900000
268.996948	153.680000
269.089905	154.160000
269.182892	154.020000
269.275879	154.540000
269.368866	153.740000
269.461853	153.820000
269.554871	153.380000
269.647858	153.140000
269.740845	153.220000
269.833832	153.940000
269.926819	153.920000
270.019806	154.200000
270.112793	154.140000
270.205811	153.940000
270.298798	154.020000
270.391785	154.660000
270.484772	154.120000
270.577789	154.520000
270.670776	154.060000
270.763763	153.840000
270.856750	153.860000
270.949768	153.700000
271.042786	153.440000
271.135773	153.720000
271.228790	153.980000
271.321808	153.180000
271.414795	153.340000
271.507782	153.100000
271.600800	152.560000
271.693817	152.620000
271.786804	153.320000
271.879822	153.280000
271.972809	153.360000
272.065826	154.360000
272.158844	154.120000
272.251831	154.680000
272.344849	154.800000
272.437866	154.560000
272.530853	154.360000
272.623871	154.640000
272.716888	153.060000
272.809906	153.300000
272.902893	153.540000
272.995911	152.740000
273.088928	152.500000
273.181946	153.300000
273.274963	152.840000
273.367981	152.960000
273.460999	153.420000
273.554047	153.660000
273.647003	154.220000
273.740051	154.380000
273.833069	154.820000
273.926086	154.960000
274.019135	154.480000
274.112152	153.700000
274.205170	154.080000
274.298187	153.880000
274.391205	153.280000
274.484222	153.460000
274.577240	153.520000
274.670258	153.260000
274.763306	153.360000
274.856323	154.020000
274.949341	153.900000
275.042358	154.580000
275.135406	154.720000
275.228424	154.300000
275.321442	154.060000
275.414490	154.040000
275.507507	153.980000
275.600525	154.220000
275.693573	154.160000
275.786591	153.900000
275.879669	154.220000
275.972656	153.760000
276.065735	153.320000
276.158752	153.900000
276.251801	154.740000
276.344818	154.720000
276.437866	154.680000
276.530884	154.580000
276.623932	153.860000
276.716980	153.920000
276.809998	153.840000
276.903046	154.040000
276.996094	155.000000
277.089111	155.640000
277.182159	155.680000
277.275208	155.600000
277.368256	155.580000
277.461304	154.980000
277.554321	154.340000
277.647369	154.020000
277.740417	153.780000
277.833466	153.480000
277.926514	153.300000
278.019562	153.900000
278.112610	153.400000
278.205688	153.840000
278.298706	154.240000
278.391785	154.060000
278.484833	153.560000
278.577881	153.480000
278.670929	153.420000
278.763977	153.300000
278.857025	153.840000
278.950073	153.920000
279.043121	154.080000
279.136169	154.200000
279.229248	153.740000
279.322296	153.640000
279.415344	153.780000
279.508392	153.520000
279.601440	153.260000
279.694519	153.560000
279.787567	153.520000
279.880615	153.060000
279.973694	152.900000
280.066742	152.900000
280.159790	152.860000
280.252869	152.120000
280.345917	152.600000
280.438995	153.120000
280.532074	153.060000
280.625122	153.680000
280.718201	155.180000
280.811279	155.040000
280.904327	154.860000
280.997406	155.500000
281.090454	155.200000
281.183533	154.200000
281.276581	154.280000
281.369659	154.120000
281.462738	153.820000
281.555786	153.720000
281.648865	154.060000
281.741943	153.980000
281.835022	154.740000
281.928070	154.320000
282.021149	154.280000
282.114227	154.000000
282.207306	153.940000
282.300385	154.300000
282.393433	154.760000
282.486511	154.760000
282.579590	155.560000
282.672668	156.080000
282.765747	155.260000
282.858856	154.920000
282.951904	154.820000
283.045013	154.400000
283.138062	154.660000
283.231171	154.960000
283.324249	155.340000
283.417328	155.760000
283.510406	155.640000
283.603485	155.280000
283.696564	155.160000
283.789642	155.080000
283.882751	154.600000
283.975830	155.120000
284.068909	154.700000
284.161987	155.100000
284.255066	154.580000
284.348175	154.920000
284.441254	153.920000
284.534332	154.480000
284.627441	153.920000
284.720520	153.660000
284.813599	153.680000
284.906708	154.320000
284.999786	153.600000
285.092896	153.580000
285.185974	154.840000
285.279053	154.200000
285.372192	154.340000
285.465240	155.140000
285.558380	155.160000
285.651459	154.780000
285.744568	155.880000
285.837677	155.040000
285.930756	155.020000
286.023865	154.940000
286.116943	154.320000
286.210052	154.180000
286.303162	154.440000
286.396240	154.140000
286.489349	154.260000
286.582458	154.880000
286.675568	154.500000
286.768646	154.640000
286.861755	155.060000
286.954865	155.620000
287.047974	154.980000
287.141083	154.800000
287.234161	154.780000
287.327271	154.400000
287.420380	154.520000
287.513519	154.680000
287.606598	154.640000
287.699738	154.700000
287.792816	154.580000
287.885956	153.980000
287.979034	154.020000
288.072174	154.160000
288.165283	154.080000
288.258392	154.320000
288.351501	153.920000
288.444611	154.280000
288.537720	154.560000
288.630859	154.500000
288.723969	154.660000
288.817078	155.400000
288.910187	155.180000
289.003296	154.580000
289.096436	154.480000
289.189545	153.940000
289.282654	153.300000
289.375763	153.380000
289.468903	153.840000
289.562012	154.060000
289.655121	154.100000
289.748260	154.220000
289.841400	154.660000
289.934509	154.460000
290.027649	154.520000
290.120728	154.440000
290.213898	154.620000
290.306976	153.880000
290.400146	154.220000
290.493256	153.860000
290.586395	154.160000
290.679535	154.300000
290.772644	154.460000
290.865784	153.380000
290.958893	153.380000
291.052032	153.200000
291.145172	153.080000
291.238281	152.900000
291.331421	153.300000
291.424561	153.720000
291.517670	153.420000
291.610809	153.380000
291.703949	153.340000
291.797089	153.820000
291.890228	153.440000
291.983337	153.420000
292.076477	153.260000
292.169617	153.720000
292.262756	153.560000
292.355927	153.540000
292.449036	153.860000
292.542206	154.100000
292.635315	154.120000
292.728485	154.360000
292.821625	154.180000
292.914764	155.040000
293.007904	155.120000
293.101044	155.080000
293.194183	154.960000
293.287323	155.340000
293.380463	154.640000
293.473602	154.120000
293.566742	154.160000
293.659882	154.560000
293.753021	154.860000
293.846191	154.800000
293.939331	154.800000
294.032471	154.360000
294.125610	153.820000
294.218781	153.860000
294.311920	154.380000
294.405060	154.540000
294.498230	154.640000
294.591370	154.960000
294.684540	154.200000
294.777679	153.520000
294.870850	153.940000
294.963959	153.680000
295.057159	153.200000
295.150299	153.820000
295.243469	153.800000
295.336609	153.100000
295.429779	153.580000
295.522919	154.020000
295.616089	153.760000
295.709229	154.560000
295.802399	155.140000
295.895569	154.760000
295.988708	154.460000
296.081879	154.780000
296.175018	153.880000
296.268188	153.880000
296.361359	154.360000
296.454529	154.660000
296.547668	154.220000
296.640839	154.560000
296.734009	154.080000
296.827179	154.040000
296.920319	154.260000
297.013519	154.120000
297.106659	154.280000
297.199860	154.360000
297.292999	154.340000
297.386200	154.040000
297.479309	154.040000
297.572510	154.040000
297.665680	153.800000
297.758850	153.600000
297.852020	153.520000
297.945190	153.560000
298.038361	153.180000
298.131531	154.340000
298.224701	154.480000
298.317871	154.180000
298.411072	153.740000
298.504242	153.740000
298.597412	152.900000
298.690582	152.920000
298.783752	153.060000
298.876923	153.940000
298.970093	153.920000
299.063293	154.460000
299.156464	154.760000
299.249634	155.020000
299.342834	154.920000
299.436005	155.520000
299.529205	155.440000
299.622345	155.440000
299.715576	154.560000
299.808716	154.320000
299.901917	154.020000
299.995117	153.760000
300.088287	153.700000
300.181488	154.120000
300.274658	153.900000
300.367828	153.880000
300.461029	154.020000
300.554199	154.120000
300.647400	153.960000
300.740601	154.580000
300.833771	154.340000
300.926971	154.560000
301.020142	154.260000
301.113342	154.720000
301.206512	154.760000
301.299713	155.260000
301.392914	155.000000
301.486084	155.060000
301.579285	154.740000
301.672516	154.860000
301.765686	154.380000
301.858887	154.440000
301.952057	154.400000
302.045288	154.540000
302.138458	154.260000
302.231659	154.400000
302.324860	154.080000
302.418060	153.700000
302.511261	153.600000
302.604462	153.680000
302.697662	153.400000
302.790863	153.400000
302.884064	153.320000
302.977264	153.260000
303.070465	153.440000
303.163666	154.220000
303.256866	154.480000
303.350067	154.660000
303.443268	155.100000
303.536469	155.160000
303.629669	154.480000
303.722870	154.800000
303.816071	154.760000
303.909271	154.520000
304.002472	153.820000
304.095673	153.900000
304.188934	153.060000
304.282104	153.940000
304.375336	153.940000
304.468506	154.120000
304.561768	153.860000
304.654968	154.640000
304.748169	153.780000
304.841370	153.580000
304.934601	154.120000
305.027802	153.920000
305.121002	153.440000
305.214233	153.640000
305.307434	153.940000
305.400665	153.920000
305.493866	154.020000
305.587097	154.160000
305.680298	153.920000
305.773499	154.400000
305.866730	154.160000
305.959930	154.640000
306.053162	154.860000
306.146393	154.820000
306.239594	153.860000
306.332825	153.800000
306.426025	154.140000
306.519287	153.700000
306.612488	153.800000
306.705719	153.920000
306.798920	153.840000
306.892181	153.080000
306.985352	153.020000
307.078613	152.560000
307.171844	153.140000
307.265045	152.720000
307.358276	152.760000
307.451508	153.420000
307.544739	154.180000
307.637970	153.580000
307.731201	153.500000
307.824402	154.160000
307.917633	154.060000
308.010864	154.460000
308.104095	155.000000
308.197327	155.240000
308.290558	154.800000
308.383789	154.260000
308.477020	153.660000
308.570251	152.680000
308.663483	152.320000
308.756714	152.240000
308.849976	152.400000
308.943176	152.740000
309.036438	153.000000
309.129639	153.220000
309.222900	153.300000
309.316101	153.240000
309.409393	152.760000
309.502625	152.640000
309.595856	152.680000
309.689087	152.780000
309.782318	153.000000
309.875580	153.120000
309.968811	153.480000
310.062042	153.280000
310.155273	153.240000
310.248535	153.720000
310.341766	153.620000
310.434998	153.420000
310.528259	153.780000
310.621490	153.660000
310.714722	152.720000
310.807983	152.720000
310.901215	152.620000
310.994476	152.640000
311.087708	152.420000
311.181000	153.000000
311.274200	152.580000
311.367462	152.880000
311.460693	152.380000
311.553986	153.240000
311.647186	153.340000
311.740479	154.460000
311.833710	153.920000
311.926971	154.560000
312.020203	153.700000
312.113464	153.180000
312.206726	152.280000
312.299957	152.840000
312.393219	153.100000
312.486481	153.560000
312.579712	153.720000
312.672974	153.960000
312.766235	153.740000
312.859497	153.580000
312.952759	153.140000
313.045990	153.780000
313.139252	153.200000
313.232513	153.720000
313.325775	153.320000
313.419037	153.600000
313.512299	152.740000
313.605530	153.660000
313.698822	153.820000
313.792053	153.980000
313.885345	153.820000
313.978577	154.320000
314.071869	153.940000
314.165131	154.000000
314.258392	154.440000
314.351654	154.180000
314.444916	153.600000
314.538177	154.140000
314.631439	154.320000
314.724701	153.980000
314.817993	154.080000
314.911255	154.400000
315.004517	153.680000
315.097778	153.100000
315.191040	153.520000
315.284302	154.060000
315.377594	153.940000
315.470856	154.040000
315.564117	153.600000
315.657379	153.160000
315.750671	152.320000
315.843933	152.820000
315.937195	152.520000
316.030518	152.460000
316.123749	152.520000
316.217041	153.780000
316.310303	153.580000
316.403595	154.100000
316.496857	154.640000
316.590149	154.780000
316.683411	154.000000
316.776703	153.640000
316.869965	153.460000
316.963257	153.200000
317.056519	152.380000
317.149811	152.000000
317.243073	152.020000
317.336365	152.040000
317.429626	152.300000
317.522919	153.000000
317.616180	153.320000
317.709473	153.120000
317.802765	153.100000
317.896027	153.080000
317.989319	153.440000
318.082611	153.500000
318.175873	153.540000
318.269165	153.740000
318.362488	153.620000
318.455750	153.220000
318.549042	153.520000
318.642303	154.080000
318.735626	153.380000
318.828888	153.780000
318.922211	153.420000
319.015472	154.000000
319.108765	153.220000
319.202057	153.360000
319.295349	153.240000
319.388641	153.320000
319.481934	152.640000
319.575226	153.040000
319.668518	153.480000
319.761810	153.320000
319.855103	153.360000
319.948395	153.460000
320.041687	153.840000
320.134979	153.780000
320.228271	153.480000
320.321564	153.620000
320.414856	153.600000
320.508148	152.880000
320.601440	152.800000
320.694763	152.640000
320.788025	153.400000
320.881348	153.420000
320.974640	153.920000
321.067963	153.200000
321.161224	153.520000
321.254547	152.480000
321.347839	152.780000
321.441162	152.300000
321.534454	152.960000
321.627747	152.860000
321.721069	153.900000
321.814362	153.860000
321.907654	154.280000
322.000946	154.460000
322.094269	155.120000
322.187561	154.340000
322.280884	154.900000
322.374176	154.720000
322.467468	155.060000
322.560791	154.920000
322.654083	155.400000
322.747406	154.840000
322.840698	155.220000
322.934021	155.280000
323.027344	155.500000
323.120636	155.260000
323.213959	155.160000
323.307251	154.620000
323.400574	154.440000
323.493866	153.700000
323.587219	153.660000
323.680511	154.100000
323.773834	154.360000
323.867157	154.020000
323.960449	154.360000
324.053772	154.200000
324.147095	153.960000
324.240387	154.420000
324.333710	154.540000
324.427032	154.260000
324.520355	154.240000
324.613647	153.660000
324.706970	153.420000
324.800293	153.740000
324.893616	154.400000
324.986938	154.820000
325.080231	154.700000
325.173553	154.940000
325.266876	155.180000
325.360199	154.960000
325.453522	154.240000
325.546875	153.960000
325.640167	154.060000
325.733521	153.920000
325.826813	153.900000
325.920166	154.060000
326.013489	154.360000
326.106812	153.240000
326.200134	152.640000
326.293457	152.060000
326.386780	152.340000
326.480103	152.340000
326.573425	152.480000
326.666748	152.620000
326.760071	152.960000
326.853424	152.580000
326.946747	152.780000
327.040070	153.920000
327.133392	153.940000
327.226715	153.340000
327.320068	153.160000
327.413391	153.580000
327.506714	152.420000
327.600037	152.400000
327.693390	153.000000
327.786713	153.280000
327.880066	153.040000
327.973358	153.620000
328.066742	154.280000
328.160034	154.480000
328.253418	154.760000
328.346710	154.560000
328.440063	154.220000
328.533417	153.660000
328.626740	153.740000
328.720093	153.520000
328.813416	153.560000
328.906769	153.280000
329.000092	153.480000
329.093445	153.240000
329.186768	153.180000
329.280121	153.820000
329.373444	154.400000
329.466797	154.400000
329.560120	154.640000
329.653473	155.060000
329.746796	153.980000
329.840149	153.720000
329.933502	153.500000
330.026825	152.980000
330.120178	152.520000
330.213562	152.820000
330.306854	152.980000
330.400238	153.120000
330.493561	153.200000
330.586945	154.000000
330.680237	154.400000
330.773621	154.540000
330.866974	154.300000
330.960327	154.540000
331.053680	154.220000
331.147003	154.180000
331.240356	154.200000
331.333710	154.400000
331.427063	153.920000
331.520416	153.520000
331.613770	153.300000
331.707123	153.380000
331.800476	153.560000
331.893829	154.800000
331.987152	155.020000
332.080505	155.080000
332.173859	154.840000
332.267212	154.100000
332.360565	153.220000
332.453918	152.920000
332.547333	152.500000
332.640656	152.600000
332.734039	152.980000
332.827362	152.700000
332.920746	153.520000
333.014069	154.180000
333.107452	154.460000
333.200806	154.660000
333.294159	155.020000
333.387543	154.180000
333.480896	153.720000
333.574249	153.440000
333.667603	152.940000
333.760956	153.180000
333.854340	153.080000
333.947693	153.060000
334.041046	153.300000
334.134430	154.020000
334.227783	153.380000
334.321136	153.500000
334.414520	153.380000
334.507874	153.080000
334.601227	152.780000
334.694611	153.040000
334.787964	153.220000
334.881348	153.460000
334.974701	153.600000
335.068085	153.320000
335.161438	153.600000
335.254822	153.480000
335.348175	153.720000
335.441559	153.300000
335.534943	154.180000
335.628296	154.100000
335.721680	153.960000
335.815033	153.940000
335.908417	154.440000
336.001770	153.880000
336.095154	153.660000
336.188538	153.740000
336.281891	153.440000
336.375275	152.860000
336.468658	152.760000
336.562012	153.300000
336.655396	153.640000
336.748779	153.960000
336.842133	154.320000
336.935516	154.600000
337.028900	153.820000
337.122284	153.600000
337.215637	153.560000
337.309021	153.280000
337.402435	152.720000
337.495789	152.680000
337.589203	152.540000
337.682526	152.340000
337.775940	153.020000
337.869324	153.180000
337.962708	153.340000
338.056091	153.940000
338.149475	153.660000
338.242859	153.520000
338.336243	153.400000
338.429626	153.820000
338.523010	153.700000
338.616394	153.700000
338.709778	153.560000
338.803162	154.080000
338.896545	153.780000
338.989929	153.000000
339.083313	153.480000
339.176697	153.300000
339.270081	153.080000
339.363464	153.620000
339.456848	154.200000
339.550232	153.600000
339.643616	153.600000
339.737030	153.560000
339.830383	153.020000
339.923828	153.080000
340.017181	153.420000
340.110596	153.580000
340.203949	153.240000
340.297363	152.860000
340.390778	152.860000
340.484161	152.940000
340.577545	152.680000
340.670959	152.980000
340.764343	153.340000
340.857727	153.420000
340.951111	152.780000
341.044525	153.080000
341.137909	152.640000
341.231293	152.660000
341.324707	152.340000
341.418091	153.200000
341.511505	152.960000
341.604889	153.480000
341.698303	153.660000
341.791687	153.760000
341.885071	153.120000
341.978485	153.180000
342.071899	153.340000
342.165283	153.280000
342.258698	153.540000
342.352081	154.180000
342.445496	154.800000
342.538879	154.420000
342.632324	154.260000
342.725708	154.340000
342.819122	153.800000
342.912506	153.260000
343.005920	153.320000
343.099335	154.380000
343.192719	153.840000
343.286133	153.880000
343.379547	153.900000
343.472931	154.100000
343.566345	153.340000
343.659760	153.780000
343.753143	153.740000
343.846558	153.840000
343.939972	153.780000
344.033386	154.080000
344.126770	154.020000
344.220184	154.280000
344.313599	154.580000
344.407043	154.460000
344.500427	154.120000
344.593872	154.680000
344.687225	154.440000
344.780670	153.860000
344.874054	153.740000
344.967499	154.200000
345.060913	153.760000
345.154327	153.640000
345.247742	153.440000
345.341156	153.160000
345.434570	152.420000
345.527985	152.280000
345.621399	152.720000
345.714813	152.540000
345.808228	153.160000
345.901642	153.060000
345.995056	152.620000
346.088470	152.640000
346.181885	153.000000
346.275299	152.660000
346.368713	152.480000
346.462128	152.500000
346.555573	152.180000
346.648987	152.440000
346.742401	152.460000
346.835815	153.160000
346.929260	153.060000
347.022644	153.180000
347.116119	153.020000
347.209503	153.480000
347.302948	154.060000
347.396362	154.580000
347.489807	154.640000
347.583221	155.280000
347.676636	154.900000
347.770050	153.580000
347.863495	153.160000
347.956909	152.900000
348.050323	152.320000
348.143768	152.300000
348.237183	152.560000
348.330597	153.080000
348.424042	153.540000
348.517456	153.940000
348.610901	153.840000
348.704315	153.640000
348.797760	153.220000
348.891174	152.380000
348.984619	151.940000
349.078033	152.580000
349.171448	153.480000
349.264923	153.400000
349.358337	153.900000
349.451782	154.000000
349.545197	153.240000
349.638641	152.460000
349.732086	152.220000
349.825500	152.720000
349.918945	152.060000
350.012390	152.700000
350.105804	153.540000
350.199249	153.580000
350.292664	153.740000
350.386108	154.220000
350.479553	154.660000
350.572968	154.240000
350.666412	154.860000
350.759857	154.520000
350.853302	154.980000
350.946716	154.040000
351.040161	153.980000
351.133606	153.560000
351.227081	153.400000
351.320465	154.180000
351.413940	154.600000
351.507355	154.700000
351.600830	155.120000
351.694244	154.880000
351.787720	154.060000
351.881104	153.800000
351.974579	153.640000
352.067993	154.000000
352.161469	153.980000
352.254883	153.300000
352.348358	153.340000
352.441803	153.300000
352.535248	152.860000
352.628693	153.420000
352.722137	153.420000
352.815582	153.580000
352.909027	153.860000
353.002472	153.760000
353.095917	153.600000
353.189362	154.280000
353.282806	153.960000
353.376251	153.780000
353.469696	153.340000
353.563141	153.660000
353.656586	153.480000
353.750061	153.300000
353.843475	153.180000
353.936981	153.960000
354.030396	153.380000
354.123871	153.120000
354.217285	154.320000
354.310760	154.620000
354.404175	154.240000
354.497681	154.140000
354.591095	154.180000
354.684570	152.760000
354.777985	152.400000
354.871490	152.200000
354.964935	152.840000
355.058380	153.040000
355.151855	153.140000
355.245300	153.560000
355.338745	154.160000
355.432220	153.980000
355.525665	153.620000
355.619110	154.660000
355.712585	154.000000
355.806030	153.460000
355.899475	152.800000
355.992950	153.440000
356.086426	153.440000
356.179871	153.980000
356.273346	154.020000
356.366791	154.420000
356.460266	154.540000
356.553711	153.720000
356.647186	153.560000
356.740631	153.380000
356.834106	153.260000
356.927551	152.980000
357.021027	153.160000
357.114471	153.020000
357.207947	153.160000
357.301422	153.600000
357.394867	153.680000
357.488342	153.900000
357.581818	154.140000
357.675262	154.320000
357.768738	153.720000
357.862213	152.980000
357.955658	153.100000
358.049133	153.060000
358.142609	153.620000
358.236053	153.840000
358.329529	154.100000
358.423035	154.120000
358.516449	153.800000
358.609955	153.840000
358.703400	154.540000
358.796906	154.520000
358.890350	153.820000
358.983826	154.380000
359.077271	153.680000
359.170776	153.100000
359.264221	153.320000
359.357727	153.740000
359.451172	153.880000
359.544647	153.860000
359.638123	153.880000
359.731598	154.060000
359.825073	154.480000
359.918549	154.400000
360.012024	154.640000
360.105499	154.340000
360.198975	154.220000
360.292450	153.800000
360.385925	153.440000
360.479401	152.960000
360.572876	153.360000
360.666351	153.600000
360.759857	153.540000
360.853302	153.660000
360.946808	153.480000
361.040253	153.380000
361.133759	152.780000
361.227203	153.180000
361.320709	152.840000
361.414154	153.340000
361.507660	153.740000
361.601105	154.560000
361.694641	154.960000
361.788086	154.920000
361.881592	155.440000
361.975067	154.900000
362.068542	154.780000
362.162018	154.120000
362.255524	153.960000
362.348999	153.500000
362.442474	154.020000
362.535950	153.700000
362.629456	153.760000
362.722931	153.960000
362.816406	154.440000
362.909882	154.540000
363.003387	153.820000
363.096863	154.000000
363.190338	153.940000
363.283875	153.580000
363.377319	153.200000
363.470825	154.020000
363.564301	153.360000
363.657806	153.720000
363.751282	153.300000
363.844788	154.040000
363.938232	153.660000
364.031769	154.680000
364.125214	154.880000
364.218750	155.560000
364.312225	154.440000
364.405731	154.620000
364.499207	153.700000
364.592712	153.280000
364.686188	152.920000
364.779694	152.980000
364.873169	153.040000
364.966675	153.060000
365.060150	152.980000
365.153656	153.560000
365.247131	153.840000
365.340637	153.960000
365.434143	154.580000
365.527618	154.540000
365.621155	153.280000
365.714600	153.260000
365.808136	153.100000
365.901611	152.000000
365.995117	152.220000
366.088593	152.660000
366.182129	152.520000
366.275604	152.600000
366.369110	153.100000
366.462585	152.880000
366.556122	153.720000
366.649567	153.980000
366.743103	153.940000
366.836609	153.700000
366.930115	153.940000
367.023590	153.700000
367.117096	153.220000
367.210602	153.180000
367.304108	154.080000
367.397614	154.480000
367.491119	154.820000
367.584595	155.200000
367.678101	155.540000
367.771606	155.220000
367.865112	154.820000
367.958649	154.020000
368.052124	153.900000
368.145660	153.760000
368.239136	154.380000
368.332672	154.560000
368.426147	154.800000
368.519684	154.540000
368.613159	154.540000
368.706696	153.700000
368.800171	153.520000
368.893707	153.220000
368.987183	153.400000
369.080719	153.380000
369.174225	153.200000
369.267731	153.500000
369.361237	153.760000
369.454742	154.120000
369.548248	154.780000
369.641754	154.700000
369.735260	154.280000
369.828766	153.200000
369.922272	153.640000
370.015808	152.900000
370.109314	152.940000
370.202820	153.020000
370.296356	154.700000
370.389832	153.940000
370.483368	153.580000
370.576874	153.620000
370.670410	154.000000
370.763885	152.780000
370.857422	152.860000
370.950928	152.840000
371.044464	153.740000
371.137939	153.540000
371.231476	153.860000
371.324982	154.420000
371.418518	154.880000
371.512024	154.260000
371.605560	154.480000
371.699066	154.940000
371.792572	154.020000
371.886108	154.280000
371.979614	153.960000
372.073120	153.960000
372.166656	153.940000
372.260162	154.520000
372.353668	154.040000
372.447205	154.460000
372.540710	154.360000
372.634277	153.860000
372.727753	153.880000
372.821320	154.080000
372.914795	153.880000
373.008362	153.840000
373.101837	154.400000
373.195404	154.220000
373.288879	154.180000
373.382446	154.840000
373.475922	154.640000
373.569489	155.200000
373.662964	155.220000
373.756531	155.460000
373.850037	155.420000
373.943573	155.040000
374.037109	153.700000
374.130615	154.040000
374.224152	153.860000
374.317657	153.460000
374.411194	154.980000
374.504730	155.040000
374.598236	154.740000
374.691772	154.420000
374.785309	154.600000
374.878815	152.860000
374.972351	153.500000
375.065887	153.480000
375.159454	154.320000
375.252930	153.980000
375.346497	154.580000
375.440002	154.900000
375.533569	154.940000
375.627045	154.280000
375.720612	154.680000
375.814117	155.120000
375.907684	154.540000
376.001160	154.200000
376.094727	153.760000
376.188232	154.380000
376.281799	154.340000
376.375336	154.640000
376.468872	155.440000
376.562408	155.860000
376.655914	154.840000
376.749451	154.840000
376.842987	154.540000
376.936523	153.900000
377.030060	153.800000
377.123596	154.180000
377.217133	153.680000
377.310669	153.840000
377.404205	154.220000
377.497772	154.680000
377.591278	154.520000
377.684845	155.280000
377.778351	155.340000
377.871918	155.140000
377.965424	154.500000
378.058990	154.500000
378.152496	153.940000
378.246063	153.900000
378.339569	154.080000
378.433136	154.180000
378.526642	154.280000
378.620209	154.300000
378.713745	154.120000
378.807312	154.500000
378.900848	154.600000
378.994385	155.060000
379.087921	154.360000
379.181458	154.720000
379.274994	153.720000
379.368530	153.600000
379.462097	153.200000
379.555634	154.200000
379.649170	153.700000
379.742706	153.820000
379.836273	154.340000
379.929810	153.820000
380.023376	153.000000
380.116882	153.120000
380.210449	153.160000
380.303986	152.380000
380.397552	152.320000
380.491058	152.680000
380.584656	152.480000
380.678162	152.660000
380.771729	152.800000
380.865265	153.820000
380.958832	153.880000
381.052368	154.120000
381.145935	154.860000
381.239471	155.460000
381.333008	155.320000
381.426575	155.360000
381.520111	155.740000
381.613647	155.500000
381.707214	155.340000
381.800751	154.280000
381.894318	154.740000
381.987854	154.180000
382.081421	153.660000
382.174988	153.700000
382.268524	153.880000
382.362091	153.580000
382.455627	154.480000
382.549194	154.400000
382.642731	153.840000
382.736298	153.780000
382.829834	153.440000
382.923401	153.940000
383.016937	154.520000
383.110504	155.240000
383.204041	155.480000
383.297607	156.080000
383.391174	154.680000
383.484741	155.080000
383.578278	154.260000
383.671844	153.860000
383.765411	152.920000
383.858948	153.660000
383.952515	153.140000
384.046051	153.900000
384.139618	154.460000
384.233185	155.000000
384.326721	154.480000
384.420288	154.840000
384.513855	154.600000
384.607422	154.940000
384.700989	155.080000
384.794525	154.880000
384.888123	154.520000
384.981659	154.740000
385.075226	154.200000
385.168762	153.960000
385.262360	154.080000
385.355896	153.300000
385.449463	153.100000
385.542999	153.100000
385.636597	154.100000
385.730164	154.380000
385.823730	154.520000
385.917267	154.140000
386.010834	154.420000
386.104401	153.760000
386.197968	153.900000
386.291534	154.380000
386.385101	154.540000
386.478668	154.800000
386.572235	154.700000
386.665802	154.180000
386.759338	153.960000
386.852905	153.820000
386.946472	153.440000
387.040070	153.680000
387.133606	153.880000
387.227203	153.780000
387.320740	154.200000
387.414337	153.560000
387.507874	153.380000
387.601471	153.740000
387.695007	153.280000
387.788605	152.900000
387.882141	153.400000
387.975739	153.160000
388.069275	152.560000
388.162872	153.240000
388.256439	153.280000
388.350037	153.000000
388.443604	152.920000
388.537170	153.260000
388.630737	153.620000
388.724304	153.780000
388.817871	153.880000
388.911438	154.000000
389.005005	154.280000
389.098602	154.400000
389.192169	154.200000
389.285736	154.960000
389.379333	154.840000
389.472870	154.140000
389.566467	154.000000
389.660034	153.940000
389.753632	152.880000
389.847168	153.300000
389.940765	153.860000
390.034332	153.880000
390.127930	153.860000
390.221466	154.200000
390.315063	154.040000
390.408630	153.320000
390.502228	152.680000
390.595795	152.800000
390.689362	153.100000
390.782959	153.060000
390.876526	153.640000
390.970093	153.700000
391.063690	154.200000
391.157257	154.060000
391.250824	154.320000
391.344421	153.800000
391.437988	154.100000
391.531555	154.280000
391.625153	154.400000
391.718750	154.460000
391.812317	154.680000
391.905914	154.380000
391.999481	154.180000
392.093079	154.140000
392.186615	154.180000
392.280243	154.360000
392.373779	154.600000
392.467407	154.960000
392.560944	154.660000
392.654572	154.280000
392.748108	154.220000
392.841736	154.400000
392.935303	153.720000
393.028900	153.680000
393.122467	153.580000
393.216064	153.100000
393.309631	152.320000
393.403229	151.820000
393.496796	152.080000
393.590393	151.560000
393.683990	152.180000
393.777557	153.240000
393.871155	153.880000
393.964722	154.060000
394.058350	154.740000
394.151917	154.580000
394.245514	153.960000
394.339081	154.520000
394.432678	154.720000
394.526245	154.600000
394.619873	154.320000
394.713409	154.780000
394.807037	154.020000
394.900604	154.020000
394.994202	153.960000
395.087769	154.420000
395.181396	153.540000
395.274994	154.520000
395.368561	153.440000
395.462158	153.780000
395.555756	153.100000
395.649353	153.600000
395.742920	152.920000
395.836517	154.000000
395.930115	153.260000
396.023712	154.020000
396.117279	154.240000
396.210876	153.560000
396.304474	153.500000
396.398071	154.040000
396.491669	153.860000
396.585266	153.480000
396.678833	153.380000
396.772461	153.220000
396.866028	152.980000
396.959656	153.060000
397.053223	153.320000
397.146851	153.460000
397.240417	153.400000
397.334015	154.240000
397.427582	153.920000
397.521210	154.080000
397.614807	154.460000
397.708405	154.680000
397.802002	154.220000
397.895599	154.640000
397.989197	154.540000
398.082794	154.900000
398.176392	154.960000
398.269989	155.140000
398.363586	155.240000
398.457184	155.980000
398.550781	156.220000
398.644379	156.020000
398.737976	155.840000
398.831573	156.580000
398.925201	156.800000
399.018768	158.600000
399.112396	162.400000
399.205963	168.960000
399.299591	177.680000
399.393158	191.060000
399.486786	210.340000
399.580353	240.420000
399.673981	295.740000
399.767578	400.960000
399.861206	580.240000
399.954773	839.840000
400.048401	1142.780000
400.141998	1423.300000
400.235596	1609.400000
400.329193	1648.300000
400.422791	1524.920000
400.516418	1284.480000
400.610016	997.180000
400.703613	728.740000
400.797211	513.260000
400.890808	365.380000
400.984436	275.520000
401.078033	224.860000
401.171631	195.020000
401.265259	180.220000
401.358826	172.380000
401.452484	167.520000
401.546051	164.060000
401.639679	162.380000
401.733246	160.840000
401.826904	159.300000
401.920471	157.460000
402.014099	156.860000
402.107697	156.280000
402.201324	155.820000
402.294891	155.960000
402.388550	156.240000
402.482147	155.960000
402.575745	155.340000
402.669373	154.740000
402.762970	154.080000
402.856567	153.900000
402.950195	153.880000
403.043793	153.960000
403.137390	154.840000
403.231018	154.380000
403.324615	155.020000
403.418243	154.720000
403.511841	155.140000
403.605469	154.580000
403.699066	155.300000
403.792694	155.020000
403.886292	155.080000
403.979919	154.820000
404.073517	154.400000
404.167145	154.440000
404.260712	154.580000
404.354370	154.200000
404.447937	154.140000
404.541595	154.540000
404.635162	154.840000
404.728821	155.060000
404.822418	155.060000
404.916046	154.680000
405.009644	154.980000
405.103271	154.620000
405.196899	154.020000
405.290497	154.360000
405.384125	155.040000
405.477722	154.000000
405.571350	153.580000
405.664948	153.800000
405.758575	153.580000
405.852203	152.980000
405.945801	153.720000
406.039429	153.780000
406.133057	153.480000
406.226654	153.320000
406.320312	153.460000
406.413879	153.720000
406.507538	154.060000
406.601135	153.700000
406.694763	154.400000
406.788361	154.280000
406.882019	153.780000
406.975586	154.120000
407.069244	154.820000
407.162872	154.320000
407.256470	154.420000
407.350098	154.280000
407.443726	153.860000
407.537323	153.400000
407.630951	153.700000
407.724579	153.240000
407.818207	153.880000
407.911804	153.500000
408.005432	153.320000
408.099060	153.540000
408.192688	154.120000
408.286285	153.740000
408.379913	153.580000
408.473572	153.680000
408.567169	152.760000
408.660828	152.960000
408.754395	152.660000
408.848053	153.040000
408.941650	153.380000
409.035309	153.200000
409.128906	152.720000
409.222565	152.980000
409.316132	153.340000
409.409790	152.960000
409.503387	153.260000
409.597046	153.640000
409.690674	153.940000
409.784302	153.960000
409.877930	154.100000
409.971558	154.500000
410.065186	154.240000
410.158783	153.820000
410.252411	153.280000
410.346039	153.680000
410.439667	153.680000
410.533295	154.100000
410.626923	154.800000
410.720551	154.600000
410.814209	154.960000
410.907806	154.840000
411.001465	154.240000
411.095062	153.960000
411.188721	154.400000
411.282318	153.660000
411.375977	153.360000
411.469574	153.560000
411.563232	153.120000
411.656830	152.800000
411.750488	152.860000
411.844086	152.940000
411.937744	153.080000
412.031372	153.500000
412.125000	153.660000
412.218628	153.780000
412.312256	154.500000
412.405884	154.740000
412.499512	154.620000
412.593170	155.100000
412.686798	155.100000
412.780426	154.400000
412.874054	154.640000
412.967682	154.680000
413.061310	154.800000
413.154968	154.740000
413.248566	155.240000
413.342224	154.440000
413.435852	154.280000
413.529510	153.960000
413.623108	153.220000
413.716766	152.800000
413.810364	153.600000
413.904022	153.380000
413.997650	152.840000
414.091309	154.140000
414.184906	154.400000
414.278564	153.620000
414.372192	154.240000
414.465851	154.700000
414.559479	154.020000
414.653107	154.560000
414.746735	154.660000
414.840393	154.420000
414.934021	154.540000
415.027649	154.300000
415.121277	153.840000
415.214935	154.500000
415.308563	154.200000
415.402191	153.500000
415.495850	153.740000
415.589478	153.460000
415.683136	152.920000
415.776733	153.100000
415.870422	153.900000
415.964020	153.320000
416.057678	153.460000
416.151306	153.460000
416.244965	153.540000
416.338562	153.180000
416.432251	154.080000
416.525848	154.920000
416.619507	155.160000
416.713165	155.540000
416.806793	155.780000
416.900421	155.700000
416.994080	154.900000
417.087708	154.860000
417.181366	154.040000
417.274994	153.860000
417.368622	154.200000
417.462280	154.720000
417.555908	154.580000
417.649567	154.540000
417.743195	154.560000
417.836853	154.120000
417.930481	154.020000
418.024170	154.280000
418.117767	155.040000
418.211426	155.300000
418.305054	155.340000
418.398712	154.720000
418.492340	154.740000
418.585999	154.640000
418.679626	154.440000
418.773285	154.580000
418.866913	155.140000
418.960571	155.260000
419.054230	155.400000
419.147858	155.700000
419.241516	155.860000
419.335144	155.360000
419.428802	155.160000
419.522461	154.520000
419.616089	154.040000
419.709747	154.100000
419.803375	154.320000
419.897034	154.260000
419.990662	154.700000
420.084320	155.240000
420.177979	155.280000
420.271606	155.360000
420.365295	155.880000
420.458893	155.920000
420.552582	155.840000
420.646210	155.480000
420.739868	155.140000
420.833496	154.380000
420.927155	153.700000
421.020782	153.320000
421.114471	153.160000
421.208069	153.360000
421.301758	153.840000
421.395386	154.460000
421.489044	154.160000
421.582703	154.180000
421.676361	155.040000
421.769989	154.420000
421.863647	154.520000
421.957306	154.760000
422.050934	154.840000
422.144592	154.240000
422.238251	154.140000
422.331909	153.580000
422.425537	153.420000
422.519196	153.460000
422.612854	153.040000
422.706543	153.320000
422.800140	153.960000
422.893829	153.980000
422.987457	153.740000
423.081146	154.000000
423.174744	154.240000
423.268433	153.640000
423.362061	153.880000
423.455750	153.780000
423.549347	153.400000
423.643036	152.700000
423.736664	153.500000
423.830353	153.460000
423.924011	153.900000
424.017639	153.660000
424.111298	153.960000
424.204956	153.740000
424.298615	153.640000
424.392273	153.280000
424.485931	153.880000
424.579559	154.220000
424.673218	154.020000
424.766876	154.400000
424.860535	154.120000
424.954193	153.960000
425.047882	154.580000
425.141510	154.620000
425.235199	154.500000
425.328796	154.580000
425.422485	154.620000
425.516113	153.420000
425.609802	153.220000
425.703430	153.280000
425.797119	153.520000
425.890747	153.720000
425.984436	154.140000
426.078064	154.260000
426.171753	154.280000
426.265411	154.300000
426.359070	154.500000
426.452728	154.360000
426.546356	154.020000
426.640015	153.900000
426.733673	153.640000
426.827332	152.980000
426.920990	153.980000
427.014648	154.040000
427.108307	153.980000
427.201965	154.900000
427.295624	155.340000
427.389282	154.220000
427.482941	154.660000
427.576630	154.520000
427.670258	153.400000
427.763947	153.080000
427.857574	153.260000
427.951263	153.220000
428.044922	153.140000
428.138611	153.500000
428.232239	154.100000
428.325928	154.800000
428.419556	155.260000
428.513245	155.120000
428.606903	155.360000
428.700562	154.560000
428.794220	153.460000
428.887878	152.680000
428.981537	153.320000
429.075195	153.240000
429.168854	154.160000
429.262512	154.700000
429.356201	154.980000
429.449860	154.760000
429.543518	154.880000
429.637177	154.960000
429.730835	154.840000
429.824493	154.640000
429.918182	154.720000
430.011810	154.220000
430.105530	153.440000
430.199158	153.640000
430.292847	153.840000
430.386475	153.720000
430.480164	153.760000
430.573792	153.720000
430.667511	153.760000
430.761139	153.940000
430.854828	154.460000
430.948456	155.000000
431.042145	155.420000
431.135834	155.060000
431.229492	155.020000
431.323151	154.660000
431.416809	154.240000
431.510468	154.240000
431.604156	154.540000
431.697815	154.640000
431.791473	154.200000
431.885132	153.960000
431.978821	154.220000
432.072479	154.380000
432.166138	154.440000
432.259827	154.900000
432.353485	155.500000
432.447174	155.560000
432.540802	155.420000
432.634491	155.680000
432.728149	155.680000
432.821838	156.080000
432.915466	155.580000
433.009186	155.760000
433.102814	154.780000
433.196503	154.360000
433.290131	154.120000
433.383850	154.280000
433.477509	154.120000
433.571167	155.260000
433.664856	156.100000
433.758514	156.340000
433.852173	156.700000
433.945862	156.780000
434.039520	156.360000
434.133179	155.520000
434.226868	155.200000
434.320526	154.300000
434.414185	154.640000
434.507874	154.160000
434.601562	154.700000
434.695221	154.320000
434.788910	154.900000
434.882538	154.920000
434.976257	154.920000
435.069885	154.760000
435.163574	155.460000
435.257233	154.840000
435.350922	154.680000
435.444580	154.300000
435.538269	154.080000
435.631897	154.380000
435.725616	155.080000
435.819275	155.300000
435.912964	156.320000
436.006622	156.660000
436.100311	156.280000
436.193970	155.600000
436.287628	155.180000
436.381317	154.660000
436.474976	154.120000
436.568665	153.720000
436.662323	154.260000
436.756012	154.480000
436.849670	154.400000
436.943390	154.620000
437.037018	154.660000
437.130737	154.240000
437.224365	153.820000
437.318085	154.020000
437.411713	154.240000
437.505432	154.620000
437.599060	155.500000
437.692780	156.240000
437.786407	156.240000
437.880127	156.260000
437.973755	155.720000
438.067474	154.920000
438.161133	154.480000
438.254822	154.680000
438.348480	154.340000
438.442169	155.280000
438.535828	155.680000
438.629517	155.380000
438.723175	154.480000
438.816864	154.820000
438.910553	153.920000
439.004211	153.500000
439.097900	153.200000
439.191559	153.880000
439.285248	153.240000
439.378906	153.360000
439.472626	153.420000
439.566284	153.660000
439.659973	153.740000
439.753632	153.880000
439.847321	154.660000
439.940979	154.880000
440.034698	154.940000
440.128326	154.420000
440.222046	154.520000
440.315674	153.080000
440.409393	152.980000
440.503082	152.700000
440.596741	153.080000
440.690430	153.300000
440.784088	153.540000
440.877777	153.040000
440.971466	153.420000
441.065125	153.160000
441.158813	152.740000
441.252502	152.980000
441.346161	153.300000
441.439850	153.560000
441.533539	153.480000
441.627197	154.000000
441.720886	153.580000
441.814606	154.100000
441.908234	154.200000
442.001953	154.160000
442.095612	154.020000
442.189301	154.580000
442.282959	154.400000
442.376678	153.940000
442.470306	154.460000
442.564026	154.200000
442.657684	154.160000
442.751404	154.080000
442.845032	154.740000
442.938751	154.140000
443.032440	154.280000
443.126099	153.960000
443.219788	154.400000
443.313477	153.800000
443.407166	154.380000
443.500824	154.380000
443.594513	154.980000
443.688202	154.500000
443.781891	154.360000
443.875549	153.900000
443.969238	154.040000
444.062927	153.900000
444.156647	154.200000
444.250275	154.480000
444.343994	154.700000
444.437653	154.720000
444.531372	154.540000
444.625031	153.840000
444.718719	153.360000
444.812378	153.140000
444.906097	153.000000
444.999756	152.680000
445.093445	152.880000
445.187103	153.200000
445.280823	153.940000
445.374512	153.280000
445.468201	153.420000
445.561859	153.080000
445.655548	152.880000
445.749237	151.900000
445.842926	152.560000
445.936615	152.760000
446.030304	152.940000
446.123962	153.600000
446.217651	153.620000
446.311340	153.720000
446.405029	153.580000
446.498749	153.420000
446.592407	152.740000
446.686096	153.120000
446.779755	153.040000
446.873474	153.180000
446.967133	153.940000
447.060852	153.800000
447.154510	153.860000
447.248230	153.800000
447.341858	153.780000
447.435577	152.980000
447.529236	152.900000
447.622955	152.460000
447.716644	152.580000
447.810333	152.580000
447.904022	153.300000
447.997711	153.360000
448.091400	154.120000
448.185059	154.120000
448.278748	154.320000
448.372437	153.920000
448.466125	154.340000
448.559814	154.000000
448.653503	154.480000
448.747192	154.700000
448.840912	155.340000
448.934570	155.160000
449.028290	155.500000
449.121948	154.900000
449.215637	154.340000
449.309296	153.580000
449.403015	154.080000
449.496674	153.840000
449.590393	153.920000
449.684052	154.160000
449.777771	155.120000
449.871429	154.220000
449.965149	154.060000
450.058838	154.320000
450.152527	154.460000
450.246216	154.040000
450.339905	154.420000
450.433594	154.340000
450.527283	154.780000
450.620972	154.400000
450.714661	154.400000
450.808350	154.360000
450.902039	154.620000
450.995728	154.020000
451.089417	153.760000
451.183105	153.740000
451.276794	154.460000
451.370514	153.780000
451.464172	152.940000
451.557892	152.780000
451.651550	152.780000
451.745270	151.840000
451.838928	151.660000
451.932648	152.460000
452.026306	153.220000
452.120026	152.820000
452.213684	153.300000
452.307404	153.800000
452.401062	153.980000
452.494781	154.280000
452.588470	154.400000
452.682159	154.040000
452.775848	154.300000
452.869537	153.580000
452.963226	152.940000
453.056915	153.000000
453.150604	152.920000
453.244293	153.020000
453.337982	153.960000
453.431671	154.400000
453.525360	155.000000
453.619049	155.120000
453.712769	154.840000
453.806427	154.440000
453.900146	154.120000
453.993805	153.640000
454.087555	153.840000
454.181213	154.060000
454.274933	153.820000
454.368591	153.620000
454.462311	153.620000
454.555969	153.300000
454.649689	153.700000
454.743347	153.340000
454.837067	154.260000
454.930756	154.600000
455.024445	154.920000
455.118134	154.340000
455.211853	154.740000
455.305542	153.980000
455.399231	153.660000
455.492920	153.420000
455.586609	153.740000
455.680298	154.080000
455.773987	153.560000
455.867676	153.540000
455.961365	154.040000
456.055084	153.560000
456.148773	152.680000
456.242493	153.120000
456.336151	152.940000
456.429871	153.040000
456.523529	153.360000
456.617249	153.760000
456.710907	154.420000
456.804626	154.320000
456.898315	153.580000
456.992035	153.680000
457.085693	153.460000
457.179413	152.460000
457.273102	153.620000
457.366791	154.060000
457.460480	154.320000
457.554199	155.080000
457.647888	155.480000
457.741577	154.540000
457.835266	154.300000
457.928955	154.060000
458.022644	154.220000
458.116364	154.440000
458.210052	154.420000
458.303741	154.800000
458.397461	154.160000
458.491119	153.500000
458.584839	153.360000
458.678528	153.460000
458.772247	153.020000
458.865906	153.500000
458.959625	154.680000
459.053284	154.480000
459.147003	154.020000
459.240692	154.600000
459.334412	154.600000
459.428070	153.640000
459.521790	153.740000
459.615479	153.840000
459.709198	153.940000
459.802887	153.360000
459.896576	153.080000
459.990265	152.940000
460.083954	153.360000
460.177673	152.800000
460.271362	153.340000
460.365051	153.540000
460.458740	153.660000
460.552429	153.080000
460.646149	153.080000
460.739838	152.660000
460.833527	152.800000
460.927246	152.440000
461.020905	152.220000
461.114655	152.280000
461.208313	152.520000
461.302032	152.180000
461.395691	152.680000
461.489441	153.040000
461.583099	152.960000
461.676819	152.600000
461.770477	153.180000
461.864197	152.520000
461.957916	152.640000
462.051605	152.160000
462.145294	153.460000
462.238983	152.940000
462.332703	153.960000
462.426392	154.520000
462.520081	155.100000
462.613770	154.280000
462.707489	154.460000
462.801178	154.140000
462.894867	153.840000
462.988556	153.540000
463.082275	153.760000
463.175964	153.560000
463.269684	153.800000
463.363342	153.640000
463.457092	153.300000
463.550751	153.460000
463.644470	153.840000
463.738129	153.640000
463.831879	153.680000
463.925537	154.660000
464.019257	154.480000
464.112946	154.380000
464.206665	153.840000
464.300323	154.020000
464.394043	153.440000
464.487762	153.440000
464.581451	153.900000
464.675140	154.300000
464.768829	154.280000
464.862549	154.500000
464.956238	154.360000
465.049927	153.940000
465.143646	154.200000
465.237335	153.700000
465.331024	154.280000
465.424713	154.280000
465.518433	154.380000
465.612152	153.800000
465.705811	154.240000
465.799561	153.920000
465.893219	153.900000
465.986938	153.520000
466.080597	153.740000
466.174347	153.900000
466.268005	154.060000
466.361725	153.960000
466.455414	154.160000
466.549133	153.860000
466.642792	153.740000
466.736542	152.840000
466.830231	152.920000
466.923920	152.860000
467.017609	153.080000
467.111328	152.680000
467.205017	152.900000
467.298706	152.860000
467.392426	153.060000
467.486115	153.460000
467.579803	153.160000
467.673523	153.540000
467.767212	153.900000
467.860901	153.660000
467.954651	153.720000
468.048309	154.200000
468.142029	154.180000
468.235718	154.200000
468.329437	153.900000
468.423096	153.380000
468.516846	153.380000
468.610504	153.060000
468.704224	152.480000
468.797913	152.900000
468.891632	153.100000
468.985291	152.880000
469.079010	153.140000
469.172729	152.960000
469.266418	153.120000
469.360107	153.280000
469.453827	153.200000
469.547516	153.240000
469.641205	153.760000
469.734924	154.120000
469.828613	154.300000
469.922302	155.040000
470.016022	155.120000
470.109711	154.920000
470.203430	154.020000
470.297150	153.220000
470.390808	153.120000
470.484558	152.840000
470.578217	153.260000
470.671936	153.720000
470.765625	154.740000
470.859344	154.340000
470.953003	154.680000
471.046753	154.420000
471.140411	153.840000
471.234131	153.600000
471.327820	154.160000
471.421539	153.940000
471.515228	153.600000
471.608948	154.040000
471.702637	153.640000
471.796326	153.040000
471.890045	153.480000
471.983734	153.920000
472.077423	153.540000
472.171143	153.720000
472.264832	153.380000
472.358521	152.940000
472.452240	152.560000
472.545929	153.480000
472.639648	153.500000
472.733337	154.260000
472.827057	154.440000
472.920746	154.260000
473.014465	154.040000
473.108124	154.540000
473.201874	154.600000
473.295532	154.280000
473.389252	155.080000
473.482941	155.260000
473.576660	154.480000
473.670319	153.980000
473.764069	154.300000
473.857727	154.180000
473.951477	154.220000
474.045166	154.680000
474.138855	154.640000
474.232574	154.540000
474.326263	154.540000
474.419952	154.360000
474.513672	154.320000
474.607361	154.220000
474.701050	154.320000
474.794769	154.520000
474.888458	154.640000
474.982178	154.440000
475.075867	154.780000
475.169586	154.660000
475.263275	154.180000
475.356995	154.020000
475.450653	153.800000
475.544403	153.520000
475.638062	154.120000
475.731812	153.820000
475.825470	153.480000
475.919189	153.740000
476.012878	153.960000
476.106598	153.260000
476.200256	153.860000
476.294006	154.060000
476.387695	154.260000
476.481384	154.300000
476.575104	154.380000
476.668793	154.060000
476.762512	153.360000
476.856201	153.720000
476.949890	153.420000
477.043610	153.260000
477.137299	153.000000
477.230988	153.840000
477.324707	153.460000
477.418396	154.040000
477.512146	153.960000
477.605804	154.160000
477.699524	154.160000
477.793213	153.960000
477.886932	153.560000
477.980591	153.440000
478.074341	153.500000
478.167999	152.720000
478.261749	152.860000
478.355408	152.860000
478.449127	153.460000
478.542816	154.340000
478.636536	155.460000
478.730225	155.640000
478.823944	155.980000
478.917633	155.900000
479.011322	155.660000
479.105042	155.260000
479.198730	155.100000
479.292450	154.840000
479.386139	154.940000
479.479828	155.040000
479.573547	155.280000
479.667267	155.220000
479.760925	155.460000
479.854675	155.320000
479.948334	154.960000
480.042084	154.360000
480.135742	154.520000
480.229462	153.680000
480.323151	153.520000
480.416870	153.080000
480.510529	153.340000
480.604279	152.860000
480.697937	153.460000
480.791656	152.960000
480.885345	152.840000
480.979065	152.580000
481.072754	152.980000
481.166473	153.660000
481.260132	154.140000
481.353882	154.180000
481.447540	154.360000
481.541260	154.300000
481.635010	153.400000
481.728668	153.220000
481.822388	153.200000
481.916077	153.240000
482.009796	153.240000
482.103485	153.880000
482.197205	154.060000
482.290863	154.360000
482.384613	154.040000
482.478271	153.560000
482.571991	153.180000
482.665680	153.000000
482.759399	153.520000
482.853058	154.520000
482.946808	154.840000
483.040466	154.340000
483.134216	154.300000
483.227875	153.360000
483.321594	153.040000
483.415283	152.940000
483.509003	153.180000
483.602661	152.960000
483.696411	153.560000
483.790070	153.260000
483.883789	153.300000
483.977478	153.880000
484.071198	154.060000
484.164917	153.440000
484.258606	153.280000
484.352325	153.800000
484.445984	153.760000
484.539734	153.900000
484.633392	153.500000
484.727142	153.820000
484.820801	153.220000
484.914520	153.100000
485.008209	153.340000
485.101929	154.600000
485.195587	154.420000
485.289337	154.400000
485.382996	154.360000
485.476715	154.580000
485.570404	154.400000
485.664124	154.280000
485.757782	154.520000
485.851532	153.960000
485.945190	153.500000
486.038910	153.380000
486.132599	153.920000
486.226318	153.360000
486.319977	153.460000
486.413727	153.900000
486.507446	153.740000
486.601105	152.800000
486.694855	152.960000
486.788513	152.920000
486.882233	152.620000
486.975922	152.440000
487.069641	152.620000
487.163300	152.680000
487.257050	154.020000
487.350708	153.700000
487.444427	153.540000
487.538116	153.660000
487.631836	153.660000
487.725494	153.000000
487.819214	153.160000
487.912903	153.280000
488.006622	153.620000
488.100281	154.000000
488.194031	153.640000
488.287689	154.000000
488.381409	154.740000
488.475098	154.560000
488.568817	154.360000
488.662476	153.760000
488.756226	153.160000
488.849945	152.200000
488.943604	152.020000
489.037354	152.040000
489.131012	152.500000
489.224731	152.640000
489.318390	152.780000
489.412140	153.060000
489.505798	153.020000
489.599518	152.740000
489.693207	153.180000
489.786926	153.120000
489.880585	152.860000
489.974335	153.140000
490.067993	154.420000
490.161713	154.460000
490.255371	155.320000
490.349121	155.340000
490.442780	155.020000
490.536499	153.760000
490.630188	153.540000
490.723907	152.720000
490.817566	153.000000
490.911285	153.280000
491.004974	153.280000
491.098694	152.960000
491.192413	153.880000
491.286102	153.740000
491.379822	153.580000
491.473480	154.060000
491.567200	154.280000
491.660889	153.320000
491.754608	153.480000
491.848267	153.680000
491.941986	153.440000
492.035675	153.540000
492.129395	154.260000
492.223053	153.900000
492.316772	153.780000
492.410461	153.900000
492.504181	154.040000
492.597839	153.580000
492.691559	153.800000
492.785248	154.220000
492.878967	154.400000
492.972626	153.960000
493.066345	153.960000
493.160034	153.440000
493.253754	153.000000
493.347412	152.300000
493.441132	152.340000
493.534882	152.660000
493.628540	152.980000
493.722260	153.240000
493.815918	153.800000
493.909668	154.580000
494.003326	154.780000
494.097046	154.940000
494.190704	154.480000
494.284454	154.460000
494.378113	154.220000
494.471832	154.080000
494.565491	153.660000
494.659210	153.740000
494.752899	153.980000
494.846619	153.620000
494.940277	153.620000
495.033997	153.860000
495.127686	153.640000
495.221405	153.220000
495.315063	153.160000
495.408783	152.860000
495.502441	153.140000
495.596191	153.300000
495.689850	152.520000
495.783569	153.060000
495.877228	153.500000
495.970947	152.980000
496.064697	152.900000
496.158356	154.640000
496.252075	154.220000
496.345734	153.560000
496.439453	154.600000
496.533142	154.880000
496.626862	154.760000
496.720520	154.660000
496.814240	154.940000
496.907898	154.360000
497.001617	154.580000
497.095306	153.860000
497.189026	153.900000
497.282684	153.760000
497.376404	153.980000
497.470062	153.280000
497.563782	153.320000
497.657471	153.360000
497.751190	153.180000
497.844849	152.840000
497.938568	153.260000
498.032227	153.300000
498.125946	153.100000
498.219635	153.040000
498.313354	153.360000
498.407074	153.140000
498.500732	153.200000
498.594452	153.440000
498.688110	153.400000
498.781830	152.660000
498.875519	152.860000
498.969238	152.760000
499.062897	152.560000
499.156616	153.300000
499.250275	153.740000
499.343994	153.320000
499.437653	153.400000
499.531372	153.720000
499.625061	153.740000
499.718781	154.080000
499.812439	154.640000
499.906158	154.480000
499.999817	154.040000
500.093536	153.720000
500.187195	153.480000
500.280914	153.260000
500.374573	153.400000
500.468323	153.480000
500.561981	153.640000
500.655701	153.020000
500.749420	153.100000
500.843079	153.520000
500.936798	153.840000
501.030457	154.080000
501.124176	154.820000
501.217834	154.680000
501.311554	154.300000
501.405212	154.140000
501.498962	153.240000
501.592621	153.060000
501.686340	153.720000
501.779999	153.840000
501.873718	153.780000
501.967377	154.320000
502.061096	154.500000
502.154755	153.720000
502.248474	153.880000
502.342133	154.360000
502.435852	154.200000
502.529510	154.840000
502.623230	155.600000
502.716888	154.900000
502.810608	154.680000
502.904266	155.260000
502.997986	154.360000
503.091705	153.640000
503.185364	153.620000
503.279083	153.820000
503.372772	153.480000
503.466492	153.180000
503.560150	153.480000
503.653870	154.000000
503.747528	153.760000
503.841248	153.420000
503.934906	153.820000
504.028625	153.320000
504.122284	153.480000
504.216003	154.140000
504.309662	153.980000
504.403381	154.240000
504.497040	154.220000
504.590759	153.540000
504.684418	153.200000
504.778137	154.000000
504.871796	154.240000
504.965515	154.380000
505.059174	154.740000
505.152893	153.960000
505.246521	153.380000
505.340240	152.700000
505.433899	152.940000
505.527618	153.220000
505.621338	154.060000
505.714996	154.000000
505.808716	154.180000
505.902374	154.940000
505.996094	154.840000
506.089752	154.200000
506.183472	154.500000
506.277130	154.540000
506.370850	153.940000
506.464508	153.900000
506.558228	153.960000
506.651886	153.400000
506.745605	153.480000
506.839264	153.660000
506.932983	153.420000
507.026611	153.320000
507.120331	154.120000
507.213989	153.420000
507.307709	153.260000
507.401367	153.540000
507.495087	154.520000
507.588745	153.820000
507.682465	154.980000
507.776123	154.580000
507.869843	154.780000
507.963531	154.520000
508.057190	155.180000
508.150909	154.240000
508.244568	154.880000
508.338287	154.300000
508.431946	153.600000
508.525665	153.080000
508.619324	153.380000
508.713013	153.400000
508.806671	153.860000
508.900391	155.040000
508.994049	155.380000
509.087769	155.020000
509.181427	154.880000
509.275146	154.340000
509.368774	153.340000
509.462494	153.080000
509.556152	153.340000
509.649872	153.580000
509.743530	153.880000
509.837250	154.140000
509.930878	154.240000
510.024597	153.840000
510.118256	153.580000
510.211975	153.660000
510.305695	153.180000
510.399353	153.540000
510.493042	154.520000
510.586700	154.580000
510.680420	155.120000
510.774078	155.340000
510.867798	155.340000
510.961426	154.540000
511.055145	154.400000
511.148804	153.660000
511.242523	154.080000
511.336151	153.820000
511.429871	154.260000
511.523529	154.180000
511.617249	154.140000
511.710876	153.740000
511.804596	153.460000
511.898254	153.300000
511.991974	153.500000
512.085632	153.500000
512.179321	153.700000
512.272949	154.140000
512.366699	154.580000
512.460327	154.440000
512.554077	155.240000
512.647766	155.160000
512.741394	154.600000
512.835144	154.860000
512.928772	154.860000
513.022461	154.740000
513.116150	154.100000
513.209839	154.980000
513.303467	154.200000
513.397217	153.700000
513.490845	153.400000
513.584595	153.840000
513.678223	152.880000
513.771912	152.400000
513.865601	153.080000
513.959290	152.520000
514.052917	152.580000
514.146667	153.480000
514.240295	154.140000
514.333984	154.100000
514.427673	154.320000
514.521362	154.600000
514.614990	154.000000
514.708740	154.200000
514.802368	154.440000
514.896057	154.640000
514.989746	155.060000
515.083435	154.700000
515.177124	154.760000
515.270752	154.340000
515.364502	154.160000
515.458130	154.000000
515.551819	154.140000
515.645508	153.860000
515.739197	153.700000
515.832825	153.800000
515.926575	153.200000
516.020203	153.900000
516.113892	154.520000
516.207520	154.180000
516.301270	154.320000
516.394897	154.580000
516.488586	154.580000
516.582275	154.340000
516.675964	154.120000
516.769592	153.740000
516.863281	154.380000
516.956970	154.600000
517.050659	154.120000
517.144287	154.740000
517.238037	154.900000
517.331665	153.780000
517.425354	152.980000
517.519043	152.940000
517.612732	152.960000
517.706421	152.860000
517.800049	153.020000
517.893738	153.000000
517.987427	152.740000
518.081116	152.480000
518.174744	152.280000
518.268433	152.780000
518.362122	153.660000
518.455811	153.860000
518.549438	154.840000
518.643127	156.020000
518.736816	155.580000
518.830505	154.700000
518.924133	154.480000
519.017822	154.280000
519.111511	153.620000
519.205200	154.200000
519.298828	154.220000
519.392517	154.200000
519.486206	154.160000
519.579895	154.300000
519.673523	154.060000
519.767212	154.500000
519.860901	155.260000
519.954590	155.000000
520.048279	154.580000
520.141907	154.540000
520.235596	155.080000
520.329224	154.880000
520.422974	154.780000
520.516602	154.960000
520.610291	154.340000
520.703918	153.980000
520.797607	153.740000
520.891296	153.840000
520.984985	153.960000
521.078613	154.980000
521.172302	154.200000
521.265930	155.260000
521.359680	155.640000
521.453308	155.700000
521.546997	155.280000
521.640625	155.780000
521.734314	154.920000
521.827942	154.720000
521.921692	154.720000
522.015320	154.720000
522.109009	154.220000
522.202698	154.340000
522.296326	153.860000
522.390015	154.080000
522.483704	154.180000
522.577393	154.260000
522.671021	153.860000
522.764709	153.700000
522.858337	153.680000
522.952026	153.440000
523.045654	154.280000
523.139404	154.960000
523.233032	155.020000
523.326721	154.500000
523.420349	154.660000
523.514038	154.080000
523.607666	154.220000
523.701355	153.980000
523.795044	154.040000
523.888733	154.120000
523.982361	154.600000
524.076050	154.100000
524.169678	155.060000
524.263367	154.800000
524.356995	154.480000
524.450684	154.080000
524.544373	153.520000
524.638062	153.100000
524.731750	153.600000
524.825378	153.760000
524.919067	153.300000
525.012695	153.720000
525.106384	153.460000
525.200012	153.160000
525.293701	153.140000
525.387329	153.660000
525.481018	153.640000
525.574646	154.080000
525.668396	154.200000
525.762024	154.500000
525.855713	154.540000
525.949341	154.100000
526.043030	154.020000
526.136658	153.660000
526.230347	153.320000
526.323975	152.920000
526.417664	153.100000
526.511292	153.280000
526.604980	153.600000
526.698608	153.700000
526.792297	154.080000
526.885925	154.540000
526.979614	154.260000
527.073303	154.540000
527.166931	154.480000
527.260620	154.500000
527.354309	154.760000
527.447998	154.540000
527.541626	154.020000
527.635315	153.960000
527.728943	154.480000
527.822632	154.440000
527.916260	154.720000
528.009949	155.140000
528.103577	155.040000
528.197266	153.900000
528.290894	153.660000
528.384583	153.560000
528.478210	153.440000
528.571899	153.360000
528.665527	154.160000
528.759216	154.380000
528.852844	154.860000
528.946533	154.780000
529.040161	154.920000
529.133850	154.320000
529.227478	154.320000
529.321167	154.440000
529.414856	154.740000
529.508484	155.340000
529.602173	155.260000
529.695801	154.860000
529.789490	154.500000
529.883057	154.400000
529.976746	154.300000
530.070374	154.800000
530.164062	154.840000
530.257690	155.000000
530.351379	155.040000
530.445007	154.860000
530.538696	154.160000
530.632324	154.640000
530.726013	154.760000
530.819641	154.640000
530.913330	154.660000
531.006958	154.980000
531.100647	154.800000
531.194275	154.360000
531.287964	154.540000
531.381592	154.260000
531.475220	154.280000
531.568848	154.200000
531.662537	153.880000
531.756226	153.940000
531.849854	153.720000
531.943542	154.060000
532.037170	153.600000
532.130859	154.020000
532.224487	153.900000
532.318176	153.720000
532.411804	154.080000
532.505432	154.580000
532.599060	154.460000
532.692749	154.120000
532.786377	154.700000
532.880066	153.660000
532.973694	153.060000
533.067383	152.820000
533.161011	153.020000
533.254639	152.940000
533.348267	153.280000
533.441956	153.840000
533.535583	153.880000
533.629272	154.120000
533.722900	153.540000
533.816589	153.500000
533.910156	153.640000
534.003845	153.480000
534.097534	153.300000
534.191162	154.380000
534.284851	154.660000
534.378479	154.180000
534.472107	154.460000
534.565735	154.320000
534.659424	154.000000
534.753052	154.280000
534.846741	154.140000
534.940369	154.900000
535.033997	154.840000
535.127625	154.700000
535.221313	154.920000
535.314941	154.980000
535.408630	153.900000
535.502197	154.300000
535.595886	154.140000
535.689514	153.520000
535.783203	154.220000
535.876831	155.180000
535.970459	155.000000
536.064087	154.820000
536.157776	155.100000
536.251404	154.480000
536.345093	153.800000
536.438721	153.860000
536.532349	154.120000
536.626038	153.840000
536.719666	154.440000
536.813293	154.360000
536.906921	154.340000
537.000610	154.540000
537.094238	154.360000
537.187866	154.040000
537.281494	154.020000
537.375183	153.980000
537.468811	153.880000
537.562439	154.000000
537.656067	153.660000
537.749756	153.600000
537.843384	154.180000
537.937012	154.100000
538.030640	153.760000
538.124329	154.140000
538.217896	154.640000
538.311584	154.320000
538.405212	154.220000
538.498901	154.840000
538.592468	155.320000
538.686157	154.720000
538.779785	153.860000
538.873413	153.920000
538.967102	153.420000
539.060730	152.700000
539.154358	153.020000
539.247986	153.660000
539.341675	153.840000
539.435242	153.940000
539.528931	154.200000
539.622559	154.040000
539.716187	154.340000
539.809814	154.120000
539.903503	154.280000
539.997070	153.740000
540.090759	153.800000
540.184387	153.520000
540.278015	153.840000
540.371643	154.060000
540.465332	154.440000
540.558899	154.240000
540.652588	154.160000
540.746216	153.680000
540.839844	153.860000
540.933472	153.620000
541.027100	153.780000
541.120728	153.820000
541.214417	154.040000
541.308044	154.140000
541.401672	154.180000
541.495300	153.820000
541.588928	153.820000
541.682617	153.580000
541.776184	153.220000
541.869873	153.720000
541.963440	154.260000
542.057129	153.980000
542.150757	154.080000
542.244385	153.620000
542.338013	152.960000
542.431641	152.680000
542.525269	152.620000
542.618958	153.220000
542.712524	153.740000
542.806213	153.860000
542.899780	154.160000
542.993469	154.040000
543.087036	153.440000
543.180725	152.780000
543.274292	153.100000
543.367981	153.080000
543.461548	153.460000
543.555237	153.480000
543.648926	154.480000
543.742493	155.020000
543.836182	155.060000
543.929749	154.800000
544.023437	155.000000
544.117004	154.620000
544.210693	154.600000
544.304260	154.340000
544.397949	154.480000
544.491516	155.000000
544.585205	154.740000
544.678772	154.200000
544.772461	154.880000
544.866028	154.800000
544.959717	154.360000
545.053284	154.420000
545.146973	154.900000
545.240540	154.520000
545.334229	155.220000
545.427795	155.420000
545.521423	155.700000
545.615051	155.140000
545.708679	155.540000
545.802307	155.380000
545.895935	155.260000
545.989624	155.880000
546.083191	155.860000
546.176880	155.680000
546.270447	155.020000
546.364136	155.700000
546.457703	155.060000
546.551331	154.900000
546.644958	154.880000
546.738586	155.420000
546.832214	154.560000
546.925842	154.400000
547.019409	154.920000
547.113098	154.540000
547.206665	154.160000
547.300354	154.280000
547.393921	154.280000
547.487549	154.440000
547.581177	154.100000
547.674805	154.160000
547.768433	153.480000
547.862061	153.540000
547.955627	152.760000
548.049316	153.660000
548.142883	153.920000
548.236572	154.640000
548.330139	154.860000
548.423767	155.080000
548.517456	154.820000
548.611023	155.240000
548.704651	154.600000
548.798279	154.300000
548.891907	154.900000
548.985474	154.540000
549.079163	154.540000
549.172729	154.760000
549.266357	154.380000
549.359985	153.900000
549.453613	153.500000
549.547180	153.040000
549.640869	153.400000
549.734436	153.940000
549.828064	154.500000
549.921631	154.940000
550.015320	154.440000
550.108887	154.500000
550.202515	154.020000
550.296143	153.220000
550.389771	153.440000
550.483337	153.600000
550.576965	153.100000
550.670593	153.740000
550.764221	154.300000
550.857849	154.040000
550.951477	153.800000
551.045105	153.740000
551.138672	153.620000
551.232300	152.760000
551.325928	153.040000
551.419556	153.700000
551.513123	153.740000
551.606750	153.360000
551.700378	154.220000
551.794006	153.760000
551.887573	153.300000
551.981201	153.840000
552.074768	154.020000
552.168457	153.420000
552.262024	154.800000
552.355652	154.840000
552.449219	155.260000
552.542847	155.060000
552.636475	155.000000
552.730103	153.640000
552.823669	153.560000
552.917297	152.840000
553.010864	152.840000
553.104553	153.600000
553.198181	153.520000
553.291748	153.980000
553.385376	154.240000
553.478943	154.520000
553.572571	154.180000
553.666199	154.660000
553.759827	154.440000
553.853394	153.760000
553.947021	153.740000
554.040588	153.740000
554.134216	153.580000
554.227783	154.400000
554.321411	155.480000
554.415039	154.940000
554.508667	154.700000
554.602234	154.760000
554.695862	153.580000
554.789429	153.420000
554.883057	153.920000
554.976624	153.980000
555.070251	154.100000
555.163818	154.340000
555.257507	154.180000
555.351074	154.260000
555.444702	155.440000
555.538330	154.900000
555.631897	155.380000
555.725525	155.080000
555.819092	154.780000
555.912720	153.560000
556.006287	154.080000
556.099915	153.800000
556.193481	153.960000
556.287109	154.440000
556.380676	154.440000
556.474304	154.500000
556.567871	154.760000
556.661499	154.180000
556.755066	153.980000
556.848694	154.000000
556.942261	153.820000
557.035889	153.600000
557.129517	154.140000
557.223145	154.420000
557.316711	154.580000
557.410339	154.580000
557.503906	154.420000
557.597473	154.720000
557.691040	154.140000
557.784668	153.980000
557.878296	154.120000
557.971863	154.320000
558.065491	154.080000
558.159058	153.900000
558.252686	154.820000
558.346252	155.500000
558.439880	155.080000
558.533447	154.940000
558.627075	155.080000
558.720642	154.260000
558.814270	153.640000
558.907837	153.780000
559.001465	153.380000
559.095032	153.840000
559.188660	153.900000
559.282227	153.500000
559.375854	153.960000
559.469360	154.100000
559.562988	154.620000
559.656555	154.700000
559.750183	155.080000
559.843750	155.000000
559.937378	155.400000
560.030945	155.100000
560.124573	0.000000
560.218140	0.000000
560.311707	0.000000
560.405334	0.000000
560.498901	0.000000
560.592529	0.000000
560.686096	0.000000
560.779724	0.000000
560.873291	0.000000
560.966858	0.000000
561.060425	0.000000
561.154053	0.000000
561.247620	0.000000
561.341248	0.000000
561.434814	0.000000
561.528381	0.000000
561.621948	0.000000
561.715576	0.000000
561.809143	0.000000
561.902771	0.000000
561.996277	0.000000
562.089905	0.000000
562.183472	0.000000
562.277100	0.000000
