Model Number: SPM-002-B   
Serial Number: 70087108
Firmware Version: 004.15.4
Exposure Time: 100000.000000us
Data Taken on: 15-01-2021 16:40:49.042
Wavelength	Amplitude
221.570786	0.000000
221.663406	0.000000
221.756027	0.000000
221.848648	0.000000
221.941269	0.000000
222.033905	0.000000
222.126526	0.000000
222.219162	0.000000
222.311798	0.000000
222.404419	0.000000
222.497055	0.000000
222.589676	0.000000
222.682312	0.000000
222.774933	0.000000
222.867569	0.000000
222.960205	0.000000
223.052841	0.000000
223.145462	0.000000
223.238098	0.000000
223.330734	0.000000
223.423386	0.000000
223.516022	0.000000
223.608658	0.000000
223.701309	0.000000
223.793945	0.000000
223.886581	0.000000
223.979218	0.000000
224.071869	0.000000
224.164505	0.000000
224.257156	0.000000
224.349792	0.000000
224.442444	0.000000
224.535095	0.000000
224.627747	0.000000
224.720398	0.000000
224.813034	0.000000
224.905685	0.000000
224.998337	152.340000
225.090988	152.200000
225.183640	152.160000
225.276291	152.280000
225.368942	152.660000
225.461594	153.640000
225.554245	153.660000
225.646912	153.600000
225.739578	154.100000
225.832230	154.520000
225.924896	153.400000
226.017548	153.780000
226.110199	154.460000
226.202866	153.440000
226.295532	153.420000
226.388184	153.380000
226.480850	152.760000
226.573517	152.100000
226.666168	152.700000
226.758835	152.380000
226.851501	153.380000
226.944183	153.740000
227.036850	153.160000
227.129517	153.220000
227.222183	153.740000
227.314850	153.140000
227.407516	153.600000
227.500198	154.860000
227.592865	154.200000
227.685532	153.640000
227.778214	153.600000
227.870880	153.500000
227.963562	153.840000
228.056229	154.600000
228.148926	154.640000
228.241592	155.620000
228.334274	155.320000
228.426956	154.740000
228.519638	154.640000
228.612305	154.320000
228.704987	153.820000
228.797668	154.000000
228.890350	153.780000
228.983032	152.920000
229.075714	153.800000
229.168396	153.400000
229.261108	152.860000
229.353790	152.740000
229.446472	153.440000
229.539169	152.980000
229.631851	152.880000
229.724533	153.360000
229.817230	153.540000
229.909912	154.600000
230.002609	154.560000
230.095306	154.260000
230.187988	153.960000
230.280685	153.780000
230.373383	152.360000
230.466095	152.420000
230.558792	152.860000
230.651474	152.720000
230.744171	152.740000
230.836868	152.680000
230.929581	152.760000
231.022278	153.160000
231.114975	153.360000
231.207672	153.060000
231.300369	153.820000
231.393082	153.760000
231.485779	153.420000
231.578506	153.360000
231.671204	153.620000
231.763916	153.240000
231.856613	153.300000
231.949326	153.560000
232.042023	153.320000
232.134735	153.200000
232.227448	152.860000
232.320160	153.100000
232.412872	152.940000
232.505585	154.180000
232.598297	154.500000
232.691010	154.740000
232.783722	154.400000
232.876450	154.900000
232.969162	153.760000
233.061874	153.320000
233.154587	152.820000
233.247314	153.000000
233.340027	152.360000
233.432739	153.080000
233.525467	153.140000
233.618179	153.680000
233.710907	153.140000
233.803635	153.520000
233.896347	153.060000
233.989090	153.840000
234.081818	153.700000
234.174545	154.260000
234.267258	153.800000
234.359985	154.060000
234.452713	153.500000
234.545441	153.360000
234.638168	153.120000
234.730896	153.680000
234.823639	153.300000
234.916367	153.840000
235.009094	154.320000
235.101822	154.380000
235.194580	154.160000
235.287308	154.540000
235.380051	153.860000
235.472778	153.800000
235.565521	154.260000
235.658249	153.860000
235.750992	153.860000
235.843719	154.140000
235.936462	154.060000
236.029205	153.340000
236.121948	153.440000
236.214691	153.580000
236.307449	154.140000
236.400192	153.880000
236.492935	153.700000
236.585678	153.680000
236.678421	153.520000
236.771164	153.140000
236.863907	153.840000
236.956665	154.200000
237.049408	155.860000
237.142151	155.240000
237.234909	155.780000
237.327652	155.620000
237.420410	155.580000
237.513153	154.380000
237.605927	154.720000
237.698669	153.920000
237.791428	153.200000
237.884186	153.520000
237.976944	153.120000
238.069702	153.240000
238.162445	152.880000
238.255203	153.080000
238.347961	153.060000
238.440720	153.040000
238.533478	153.000000
238.626266	153.000000
238.719025	153.260000
238.811783	152.940000
238.904541	152.800000
238.997314	152.580000
239.090073	152.440000
239.182831	152.640000
239.275604	153.700000
239.368362	153.660000
239.461136	153.600000
239.553909	153.600000
239.646667	153.380000
239.739441	152.560000
239.832214	153.060000
239.925003	153.420000
240.017761	154.220000
240.110535	154.560000
240.203308	154.180000
240.296082	154.220000
240.388855	154.340000
240.481628	154.180000
240.574417	154.420000
240.667191	154.580000
240.759964	153.940000
240.852737	153.780000
240.945526	153.360000
241.038315	152.820000
241.131088	152.980000
241.223877	153.600000
241.316650	153.200000
241.409439	153.960000
241.502228	153.720000
241.595001	154.280000
241.687790	153.820000
241.780579	153.840000
241.873367	153.580000
241.966141	154.160000
242.058929	153.240000
242.151718	153.780000
242.244507	154.620000
242.337311	153.640000
242.430099	153.780000
242.522903	154.080000
242.615692	153.320000
242.708481	153.240000
242.801270	154.240000
242.894073	153.800000
242.986862	154.060000
243.079651	155.020000
243.172455	154.340000
243.265244	154.620000
243.358063	154.340000
243.450867	154.360000
243.543655	153.920000
243.636459	154.100000
243.729263	153.880000
243.822067	154.320000
243.914856	154.800000
244.007660	154.740000
244.100464	154.920000
244.193268	154.640000
244.286072	154.360000
244.378876	153.560000
244.471680	153.600000
244.564499	153.640000
244.657318	154.220000
244.750122	154.580000
244.842926	154.080000
244.935745	154.340000
245.028549	153.860000
245.121368	153.380000
245.214172	153.180000
245.306992	153.920000
245.399796	153.460000
245.492615	154.040000
245.585434	154.080000
245.678253	154.000000
245.771072	153.980000
245.863892	154.500000
245.956711	154.480000
246.049530	154.240000
246.142349	153.900000
246.235168	153.720000
246.327988	153.960000
246.420807	153.640000
246.513626	153.660000
246.606445	153.460000
246.699280	153.700000
246.792099	153.400000
246.884918	153.180000
246.977753	152.960000
247.070587	153.400000
247.163422	153.060000
247.256241	152.900000
247.349075	153.240000
247.441895	153.440000
247.534729	153.200000
247.627563	153.120000
247.720383	153.460000
247.813217	153.320000
247.906052	153.240000
247.998886	153.640000
248.091736	153.940000
248.184570	153.720000
248.277405	153.740000
248.370239	154.540000
248.463074	155.260000
248.555908	155.360000
248.648743	155.120000
248.741592	155.340000
248.834427	154.420000
248.927261	153.120000
249.020111	153.300000
249.112946	154.040000
249.205795	153.520000
249.298630	153.680000
249.391495	153.900000
249.484344	153.320000
249.577179	153.200000
249.670029	153.680000
249.762878	154.480000
249.855728	154.800000
249.948563	155.260000
250.041412	154.520000
250.134262	154.620000
250.227112	154.460000
250.319962	154.260000
250.412827	154.220000
250.505692	154.060000
250.598541	154.080000
250.691391	153.600000
250.784241	154.020000
250.877106	154.160000
250.969955	154.040000
251.062805	154.400000
251.155670	154.840000
251.248520	154.440000
251.341385	154.560000
251.434235	154.680000
251.527100	154.200000
251.619965	154.020000
251.712814	154.720000
251.805695	154.360000
251.898560	154.600000
251.991425	154.680000
252.084290	154.380000
252.177155	153.500000
252.270020	153.520000
252.362885	153.380000
252.455750	153.440000
252.548615	153.600000
252.641479	153.660000
252.734360	153.480000
252.827240	153.500000
252.920105	153.480000
253.012970	153.140000
253.105850	153.280000
253.198715	153.360000
253.291595	153.340000
253.384460	152.960000
253.477341	152.680000
253.570221	152.760000
253.663086	152.120000
253.755966	152.840000
253.848846	152.980000
253.941727	153.560000
254.034592	153.540000
254.127472	153.520000
254.220367	153.180000
254.313248	153.260000
254.406128	152.560000
254.499008	152.940000
254.591904	154.020000
254.684784	154.620000
254.777664	154.880000
254.870544	155.000000
254.963440	154.440000
255.056335	154.020000
255.149216	153.460000
255.242111	153.640000
255.334991	154.000000
255.427887	154.200000
255.520767	154.440000
255.613663	154.440000
255.706558	153.760000
255.799438	153.980000
255.892334	153.760000
255.985229	153.440000
256.078125	153.000000
256.171021	153.240000
256.263916	153.340000
256.356812	153.660000
256.449707	153.800000
256.542603	153.780000
256.635498	154.340000
256.728394	154.160000
256.821289	153.860000
256.914215	154.280000
257.007080	154.600000
257.100006	154.280000
257.192932	154.340000
257.285828	154.520000
257.378723	153.880000
257.471619	153.920000
257.564545	153.680000
257.657440	153.740000
257.750336	154.420000
257.843262	154.220000
257.936157	155.020000
258.029053	155.280000
258.121979	155.340000
258.214874	154.760000
258.307800	154.940000
258.400696	153.640000
258.493622	153.340000
258.586517	152.620000
258.679443	153.060000
258.772339	152.660000
258.865265	152.960000
258.958160	152.560000
259.051086	153.120000
259.144012	152.520000
259.236938	153.440000
259.329834	153.300000
259.422791	153.620000
259.515717	153.160000
259.608612	152.960000
259.701538	152.780000
259.794464	152.740000
259.887390	152.420000
259.980316	152.700000
260.073212	152.800000
260.166138	151.860000
260.259064	152.640000
260.351990	153.480000
260.444916	153.680000
260.537842	154.340000
260.630768	155.280000
260.723694	154.960000
260.816620	154.700000
260.909546	154.360000
261.002472	153.700000
261.095398	153.160000
261.188354	153.020000
261.281281	152.480000
261.374207	152.540000
261.467133	152.980000
261.560089	153.340000
261.653015	152.980000
261.745972	153.920000
261.838867	154.480000
261.931824	154.600000
262.024780	153.980000
262.117706	154.400000
262.210663	154.160000
262.303589	153.500000
262.396515	153.460000
262.489471	154.960000
262.582397	154.860000
262.675354	154.200000
262.768280	154.900000
262.861237	154.580000
262.954163	153.800000
263.047119	153.860000
263.140045	153.780000
263.233002	153.580000
263.325958	153.580000
263.418884	153.120000
263.511841	153.100000
263.604797	153.740000
263.697723	153.420000
263.790680	153.440000
263.883636	154.080000
263.976593	153.840000
264.069550	153.560000
264.162476	153.420000
264.255463	153.460000
264.348419	153.040000
264.441376	153.640000
264.534332	153.020000
264.627289	153.220000
264.720245	153.560000
264.813202	153.120000
264.906158	152.860000
264.999115	153.720000
265.092072	153.660000
265.185028	154.000000
265.277985	154.800000
265.370941	154.740000
265.463898	154.260000
265.556854	154.180000
265.649811	153.200000
265.742798	153.000000
265.835754	153.020000
265.928711	153.840000
266.021667	153.800000
266.114655	154.360000
266.207611	154.580000
266.300568	154.040000
266.393585	153.620000
266.486511	154.120000
266.579498	153.160000
266.672485	153.120000
266.765442	153.240000
266.858429	153.480000
266.951385	152.800000
267.044342	153.340000
267.137329	153.000000
267.230316	153.440000
267.323273	152.920000
267.416260	153.720000
267.509216	153.620000
267.602203	153.640000
267.695160	153.820000
267.788147	154.060000
267.881134	153.560000
267.974091	153.720000
268.067078	153.520000
268.160065	153.220000
268.253052	152.980000
268.346008	152.840000
268.438995	152.400000
268.531982	152.560000
268.624969	152.540000
268.717987	152.980000
268.810944	152.820000
268.903961	153.260000
268.996948	153.000000
269.089905	153.120000
269.182892	152.900000
269.275879	153.860000
269.368866	153.420000
269.461853	153.400000
269.554871	153.480000
269.647858	153.500000
269.740845	153.260000
269.833832	154.020000
269.926819	154.000000
270.019806	154.100000
270.112793	153.480000
270.205811	153.680000
270.298798	153.220000
270.391785	154.000000
270.484772	153.680000
270.577789	154.040000
270.670776	153.320000
270.763763	153.360000
270.856750	152.980000
270.949768	152.700000
271.042786	152.840000
271.135773	153.060000
271.228790	153.520000
271.321808	153.120000
271.414795	152.920000
271.507782	152.720000
271.600800	152.380000
271.693817	152.320000
271.786804	152.880000
271.879822	153.400000
271.972809	153.320000
272.065826	153.920000
272.158844	153.080000
272.251831	153.620000
272.344849	153.580000
272.437866	153.580000
272.530853	153.540000
272.623871	154.300000
272.716888	153.140000
272.809906	153.240000
272.902893	153.360000
272.995911	152.600000
273.088928	152.180000
273.181946	152.760000
273.274963	152.440000
273.367981	152.380000
273.460999	152.940000
273.554047	153.760000
273.647003	154.180000
273.740051	154.340000
273.833069	154.880000
273.926086	154.960000
274.019135	154.460000
274.112152	153.940000
274.205170	153.980000
274.298187	153.920000
274.391205	153.500000
274.484222	153.400000
274.577240	153.300000
274.670258	153.260000
274.763306	153.060000
274.856323	153.600000
274.949341	153.740000
275.042358	154.140000
275.135406	153.960000
275.228424	153.800000
275.321442	153.680000
275.414490	153.360000
275.507507	153.680000
275.600525	154.400000
275.693573	154.100000
275.786591	153.580000
275.879669	153.960000
275.972656	153.240000
276.065735	152.740000
276.158752	153.360000
276.251801	154.160000
276.344818	154.120000
276.437866	154.420000
276.530884	154.300000
276.623932	153.400000
276.716980	153.400000
276.809998	153.260000
276.903046	153.100000
276.996094	154.020000
277.089111	154.960000
277.182159	155.260000
277.275208	155.120000
277.368256	155.320000
277.461304	154.620000
277.554321	153.860000
277.647369	153.380000
277.740417	153.320000
277.833466	153.160000
277.926514	153.140000
278.019562	154.080000
278.112610	153.580000
278.205688	153.880000
278.298706	153.560000
278.391785	153.380000
278.484833	152.420000
278.577881	152.560000
278.670929	152.900000
278.763977	153.420000
278.857025	153.900000
278.950073	154.380000
279.043121	154.620000
279.136169	153.940000
279.229248	153.500000
279.322296	153.380000
279.415344	153.020000
279.508392	152.780000
279.601440	152.880000
279.694519	152.700000
279.787567	152.620000
279.880615	152.460000
279.973694	152.240000
280.066742	152.420000
280.159790	152.680000
280.252869	152.080000
280.345917	152.840000
280.438995	153.160000
280.532074	153.020000
280.625122	153.200000
280.718201	154.520000
280.811279	154.180000
280.904327	154.180000
280.997406	154.580000
281.090454	154.760000
281.183533	153.840000
281.276581	153.760000
281.369659	153.400000
281.462738	153.380000
281.555786	153.360000
281.648865	153.400000
281.741943	153.320000
281.835022	154.080000
281.928070	153.520000
282.021149	153.100000
282.114227	152.940000
282.207306	153.240000
282.300385	153.200000
282.393433	153.760000
282.486511	154.000000
282.579590	154.600000
282.672668	154.740000
282.765747	153.940000
282.858856	153.600000
282.951904	153.580000
283.045013	153.640000
283.138062	153.760000
283.231171	154.440000
283.324249	154.800000
283.417328	155.100000
283.510406	154.500000
283.603485	154.040000
283.696564	154.240000
283.789642	154.100000
283.882751	153.620000
283.975830	154.140000
284.068909	153.740000
284.161987	153.900000
284.255066	153.420000
284.348175	153.580000
284.441254	153.580000
284.534332	154.380000
284.627441	153.820000
284.720520	153.920000
284.813599	154.140000
284.906708	154.000000
284.999786	153.080000
285.092896	152.940000
285.185974	154.080000
285.279053	153.080000
285.372192	153.080000
285.465240	154.040000
285.558380	154.040000
285.651459	153.340000
285.744568	154.780000
285.837677	154.520000
285.930756	154.480000
286.023865	154.480000
286.116943	154.000000
286.210052	153.600000
286.303162	153.440000
286.396240	153.080000
286.489349	152.800000
286.582458	153.180000
286.675568	152.840000
286.768646	153.120000
286.861755	153.660000
286.954865	154.400000
287.047974	154.020000
287.141083	153.940000
287.234161	153.400000
287.327271	152.880000
287.420380	153.060000
287.513519	152.880000
287.606598	153.080000
287.699738	153.380000
287.792816	153.320000
287.885956	153.220000
287.979034	153.200000
288.072174	153.440000
288.165283	153.500000
288.258392	153.980000
288.351501	153.160000
288.444611	153.680000
288.537720	153.720000
288.630859	153.500000
288.723969	153.580000
288.817078	154.380000
288.910187	154.300000
289.003296	153.780000
289.096436	153.880000
289.189545	153.200000
289.282654	152.580000
289.375763	152.960000
289.468903	153.360000
289.562012	153.780000
289.655121	154.060000
289.748260	154.080000
289.841400	154.020000
289.934509	153.900000
290.027649	153.820000
290.120728	153.660000
290.213898	154.040000
290.306976	153.580000
290.400146	153.940000
290.493256	153.280000
290.586395	153.460000
290.679535	153.560000
290.772644	153.840000
290.865784	152.860000
290.958893	153.300000
291.052032	153.160000
291.145172	152.820000
291.238281	152.240000
291.331421	152.660000
291.424561	153.280000
291.517670	153.240000
291.610809	153.460000
291.703949	153.440000
291.797089	153.840000
291.890228	153.100000
291.983337	153.020000
292.076477	152.900000
292.169617	153.480000
292.262756	153.100000
292.355927	153.280000
292.449036	153.020000
292.542206	153.200000
292.635315	153.180000
292.728485	153.560000
292.821625	152.900000
292.914764	154.380000
293.007904	154.300000
293.101044	154.260000
293.194183	154.020000
293.287323	154.500000
293.380463	153.400000
293.473602	153.040000
293.566742	153.120000
293.659882	153.400000
293.753021	153.920000
293.846191	153.900000
293.939331	154.040000
294.032471	154.120000
294.125610	153.780000
294.218781	153.780000
294.311920	154.440000
294.405060	154.600000
294.498230	154.240000
294.591370	154.200000
294.684540	153.480000
294.777679	152.720000
294.870850	152.820000
294.963959	152.920000
295.057159	152.940000
295.150299	153.380000
295.243469	153.760000
295.336609	153.480000
295.429779	153.680000
295.522919	154.360000
295.616089	154.300000
295.709229	154.620000
295.802399	154.700000
295.895569	154.140000
295.988708	153.680000
296.081879	153.980000
296.175018	153.440000
296.268188	153.700000
296.361359	154.700000
296.454529	154.680000
296.547668	154.140000
296.640839	154.380000
296.734009	153.760000
296.827179	153.340000
296.920319	153.600000
297.013519	153.540000
297.106659	153.600000
297.199860	153.580000
297.292999	153.540000
297.386200	152.980000
297.479309	152.980000
297.572510	152.760000
297.665680	153.080000
297.758850	152.920000
297.852020	152.940000
297.945190	153.020000
298.038361	152.680000
298.131531	153.320000
298.224701	153.080000
298.317871	152.900000
298.411072	152.460000
298.504242	152.600000
298.597412	152.060000
298.690582	152.460000
298.783752	152.720000
298.876923	153.380000
298.970093	153.540000
299.063293	153.880000
299.156464	154.120000
299.249634	154.260000
299.342834	154.440000
299.436005	154.720000
299.529205	154.080000
299.622345	154.040000
299.715576	153.500000
299.808716	152.920000
299.901917	152.940000
299.995117	153.720000
300.088287	153.640000
300.181488	153.820000
300.274658	153.920000
300.367828	153.580000
300.461029	153.060000
300.554199	153.280000
300.647400	153.180000
300.740601	153.880000
300.833771	153.660000
300.926971	153.800000
301.020142	153.380000
301.113342	153.640000
301.206512	153.380000
301.299713	154.060000
301.392914	154.060000
301.486084	154.340000
301.579285	154.180000
301.672516	154.340000
301.765686	153.880000
301.858887	153.940000
301.952057	153.600000
302.045288	153.640000
302.138458	153.380000
302.231659	153.080000
302.324860	152.820000
302.418060	152.680000
302.511261	152.600000
302.604462	152.660000
302.697662	152.880000
302.790863	152.600000
302.884064	152.420000
302.977264	152.580000
303.070465	152.580000
303.163666	153.280000
303.256866	153.900000
303.350067	154.060000
303.443268	154.080000
303.536469	154.600000
303.629669	153.940000
303.722870	154.100000
303.816071	153.960000
303.909271	154.120000
304.002472	153.060000
304.095673	152.880000
304.188934	152.140000
304.282104	153.400000
304.375336	153.500000
304.468506	153.700000
304.561768	153.620000
304.654968	153.980000
304.748169	153.180000
304.841370	152.720000
304.934601	153.340000
305.027802	153.400000
305.121002	152.960000
305.214233	152.920000
305.307434	153.240000
305.400665	153.540000
305.493866	153.580000
305.587097	154.300000
305.680298	154.100000
305.773499	154.540000
305.866730	154.000000
305.959930	154.260000
306.053162	154.260000
306.146393	154.260000
306.239594	153.260000
306.332825	153.200000
306.426025	153.660000
306.519287	153.480000
306.612488	153.400000
306.705719	153.640000
306.798920	153.740000
306.892181	153.000000
306.985352	152.420000
307.078613	151.960000
307.171844	152.560000
307.265045	152.080000
307.358276	152.140000
307.451508	152.780000
307.544739	153.740000
307.637970	152.980000
307.731201	153.100000
307.824402	153.680000
307.917633	153.900000
308.010864	154.100000
308.104095	154.460000
308.197327	154.580000
308.290558	154.300000
308.383789	153.580000
308.477020	152.560000
308.570251	152.100000
308.663483	151.560000
308.756714	151.500000
308.849976	151.920000
308.943176	152.760000
309.036438	152.620000
309.129639	152.820000
309.222900	152.900000
309.316101	152.700000
309.409393	152.300000
309.502625	152.480000
309.595856	152.540000
309.689087	152.700000
309.782318	152.800000
309.875580	152.820000
309.968811	153.120000
310.062042	153.060000
310.155273	152.700000
310.248535	153.300000
310.341766	153.140000
310.434998	153.080000
310.528259	153.180000
310.621490	153.780000
310.714722	152.840000
310.807983	153.220000
310.901215	153.180000
310.994476	153.100000
311.087708	152.300000
311.181000	153.000000
311.274200	152.660000
311.367462	152.940000
311.460693	152.920000
311.553986	153.720000
311.647186	153.440000
311.740479	154.120000
311.833710	153.640000
311.926971	153.740000
312.020203	152.860000
312.113464	152.680000
312.206726	151.940000
312.299957	152.440000
312.393219	153.240000
312.486481	153.700000
312.579712	153.660000
312.672974	153.740000
312.766235	153.520000
312.859497	152.780000
312.952759	152.560000
313.045990	153.540000
313.139252	153.020000
313.232513	153.240000
313.325775	153.540000
313.419037	153.460000
313.512299	152.040000
313.605530	152.840000
313.698822	152.820000
313.792053	153.040000
313.885345	152.900000
313.978577	153.560000
314.071869	153.160000
314.165131	153.380000
314.258392	153.560000
314.351654	153.700000
314.444916	153.100000
314.538177	153.680000
314.631439	153.640000
314.724701	153.040000
314.817993	153.160000
314.911255	153.680000
315.004517	152.960000
315.097778	152.820000
315.191040	153.380000
315.284302	153.680000
315.377594	153.540000
315.470856	153.680000
315.564117	153.460000
315.657379	152.920000
315.750671	152.320000
315.843933	152.380000
315.937195	152.380000
316.030518	152.160000
316.123749	152.380000
316.217041	153.200000
316.310303	153.220000
316.403595	153.520000
316.496857	154.040000
316.590149	153.960000
316.683411	153.080000
316.776703	153.060000
316.869965	152.880000
316.963257	152.460000
317.056519	151.800000
317.149811	151.640000
317.243073	151.780000
317.336365	152.060000
317.429626	152.280000
317.522919	153.260000
317.616180	153.900000
317.709473	153.580000
317.802765	153.440000
317.896027	153.440000
317.989319	153.740000
318.082611	153.620000
318.175873	153.300000
318.269165	153.200000
318.362488	153.420000
318.455750	152.620000
318.549042	152.740000
318.642303	153.780000
318.735626	153.680000
318.828888	153.760000
318.922211	153.660000
319.015472	154.440000
319.108765	153.200000
319.202057	152.700000
319.295349	152.720000
319.388641	152.580000
319.481934	151.660000
319.575226	151.960000
319.668518	152.780000
319.761810	152.640000
319.855103	153.000000
319.948395	153.200000
320.041687	153.760000
320.134979	153.700000
320.228271	153.220000
320.321564	153.400000
320.414856	153.260000
320.508148	152.580000
320.601440	152.440000
320.694763	152.560000
320.788025	153.080000
320.881348	153.120000
320.974640	153.400000
321.067963	152.740000
321.161224	152.840000
321.254547	151.760000
321.347839	152.460000
321.441162	152.220000
321.534454	153.020000
321.627747	153.160000
321.721069	154.200000
321.814362	153.940000
321.907654	154.440000
322.000946	154.220000
322.094269	154.700000
322.187561	154.140000
322.280884	154.300000
322.374176	154.120000
322.467468	154.320000
322.560791	154.140000
322.654083	154.640000
322.747406	154.560000
322.840698	154.940000
322.934021	155.260000
323.027344	155.420000
323.120636	154.860000
323.213959	154.980000
323.307251	154.100000
323.400574	153.440000
323.493866	152.860000
323.587219	152.980000
323.680511	152.600000
323.773834	153.360000
323.867157	153.800000
323.960449	153.840000
324.053772	153.620000
324.147095	153.580000
324.240387	153.760000
324.333710	153.540000
324.427032	153.520000
324.520355	153.540000
324.613647	153.120000
324.706970	152.880000
324.800293	152.940000
324.893616	153.460000
324.986938	153.860000
325.080231	154.080000
325.173553	154.320000
325.266876	154.720000
325.360199	154.620000
325.453522	154.040000
325.546875	153.680000
325.640167	153.980000
325.733521	154.140000
325.826813	154.340000
325.920166	154.300000
326.013489	154.440000
326.106812	153.140000
326.200134	152.300000
326.293457	151.420000
326.386780	151.560000
326.480103	151.740000
326.573425	152.080000
326.666748	152.380000
326.760071	152.940000
326.853424	152.940000
326.946747	153.020000
327.040070	154.220000
327.133392	153.940000
327.226715	153.260000
327.320068	153.060000
327.413391	153.600000
327.506714	152.320000
327.600037	152.260000
327.693390	152.680000
327.786713	152.820000
327.880066	152.560000
327.973358	153.160000
328.066742	153.800000
328.160034	154.340000
328.253418	154.720000
328.346710	154.400000
328.440063	153.920000
328.533417	153.740000
328.626740	153.440000
328.720093	152.960000
328.813416	152.760000
328.906769	153.180000
329.000092	153.160000
329.093445	153.240000
329.186768	153.340000
329.280121	153.840000
329.373444	153.820000
329.466797	153.520000
329.560120	153.320000
329.653473	153.360000
329.746796	152.740000
329.840149	152.820000
329.933502	152.900000
330.026825	152.700000
330.120178	152.540000
330.213562	152.680000
330.306854	152.540000
330.400238	152.480000
330.493561	152.440000
330.586945	153.200000
330.680237	153.700000
330.773621	153.400000
330.866974	153.680000
330.960327	153.960000
331.053680	153.620000
331.147003	153.660000
331.240356	154.280000
331.333710	154.180000
331.427063	153.880000
331.520416	153.660000
331.613770	153.400000
331.707123	153.240000
331.800476	153.320000
331.893829	154.380000
331.987152	154.580000
332.080505	154.520000
332.173859	154.220000
332.267212	153.580000
332.360565	152.680000
332.453918	152.620000
332.547333	152.440000
332.640656	152.680000
332.734039	153.200000
332.827362	153.000000
332.920746	153.340000
333.014069	154.020000
333.107452	154.540000
333.200806	154.820000
333.294159	155.220000
333.387543	154.560000
333.480896	153.820000
333.574249	153.200000
333.667603	152.760000
333.760956	153.000000
333.854340	153.280000
333.947693	153.160000
334.041046	153.380000
334.134430	153.900000
334.227783	153.040000
334.321136	152.860000
334.414520	152.960000
334.507874	152.920000
334.601227	152.680000
334.694611	153.100000
334.787964	153.000000
334.881348	153.280000
334.974701	152.860000
335.068085	152.460000
335.161438	152.800000
335.254822	152.480000
335.348175	152.540000
335.441559	152.620000
335.534943	153.320000
335.628296	152.980000
335.721680	153.680000
335.815033	154.020000
335.908417	154.180000
336.001770	154.100000
336.095154	154.120000
336.188538	153.760000
336.281891	152.780000
336.375275	152.680000
336.468658	152.420000
336.562012	152.580000
336.655396	153.240000
336.748779	153.820000
336.842133	154.080000
336.935516	154.400000
337.028900	153.900000
337.122284	153.700000
337.215637	153.820000
337.309021	153.580000
337.402435	153.100000
337.495789	153.260000
337.589203	152.920000
337.682526	152.660000
337.775940	152.900000
337.869324	153.060000
337.962708	152.640000
338.056091	153.160000
338.149475	152.720000
338.242859	152.860000
338.336243	152.780000
338.429626	153.300000
338.523010	152.720000
338.616394	153.040000
338.709778	152.780000
338.803162	153.080000
338.896545	153.280000
338.989929	153.200000
339.083313	153.420000
339.176697	153.200000
339.270081	152.620000
339.363464	152.780000
339.456848	153.200000
339.550232	152.580000
339.643616	152.580000
339.737030	152.740000
339.830383	152.220000
339.923828	152.180000
340.017181	152.860000
340.110596	153.000000
340.203949	153.100000
340.297363	152.940000
340.390778	152.960000
340.484161	152.900000
340.577545	152.900000
340.670959	152.820000
340.764343	153.100000
340.857727	153.240000
340.951111	152.600000
341.044525	152.860000
341.137909	152.400000
341.231293	152.580000
341.324707	151.840000
341.418091	153.120000
341.511505	152.820000
341.604889	153.360000
341.698303	152.940000
341.791687	153.400000
341.885071	152.500000
341.978485	152.220000
342.071899	152.480000
342.165283	153.060000
342.258698	153.440000
342.352081	154.160000
342.445496	154.980000
342.538879	154.880000
342.632324	154.480000
342.725708	154.420000
342.819122	153.660000
342.912506	152.920000
343.005920	152.760000
343.099335	153.580000
343.192719	153.280000
343.286133	153.360000
343.379547	153.760000
343.472931	154.000000
343.566345	153.160000
343.659760	153.400000
343.753143	153.100000
343.846558	153.100000
343.939972	152.720000
344.033386	153.320000
344.126770	152.940000
344.220184	153.260000
344.313599	153.300000
344.407043	153.680000
344.500427	153.080000
344.593872	153.680000
344.687225	153.840000
344.780670	153.440000
344.874054	153.240000
344.967499	153.800000
345.060913	153.280000
345.154327	152.960000
345.247742	152.620000
345.341156	152.300000
345.434570	151.720000
345.527985	151.880000
345.621399	152.020000
345.714813	152.240000
345.808228	152.740000
345.901642	152.540000
345.995056	152.040000
346.088470	152.320000
346.181885	152.780000
346.275299	152.500000
346.368713	152.640000
346.462128	152.760000
346.555573	152.880000
346.648987	152.960000
346.742401	152.960000
346.835815	153.720000
346.929260	153.720000
347.022644	153.600000
347.116119	153.640000
347.209503	154.060000
347.302948	154.300000
347.396362	154.840000
347.489807	154.780000
347.583221	155.120000
347.676636	154.420000
347.770050	153.340000
347.863495	152.700000
347.956909	152.580000
348.050323	152.000000
348.143768	152.260000
348.237183	152.160000
348.330597	152.920000
348.424042	152.980000
348.517456	153.280000
348.610901	153.520000
348.704315	153.620000
348.797760	152.860000
348.891174	152.280000
348.984619	151.700000
349.078033	151.860000
349.171448	152.680000
349.264923	152.460000
349.358337	152.600000
349.451782	153.080000
349.545197	152.380000
349.638641	151.700000
349.732086	151.760000
349.825500	152.280000
349.918945	151.620000
350.012390	152.400000
350.105804	152.940000
350.199249	153.300000
350.292664	153.880000
350.386108	154.280000
350.479553	154.380000
350.572968	154.220000
350.666412	154.620000
350.759857	153.980000
350.853302	154.440000
350.946716	153.900000
351.040161	153.800000
351.133606	153.720000
351.227081	153.780000
351.320465	154.300000
351.413940	154.620000
351.507355	154.920000
351.600830	154.660000
351.694244	154.520000
351.787720	154.060000
351.881104	153.860000
351.974579	153.860000
352.067993	154.740000
352.161469	154.740000
352.254883	153.960000
352.348358	153.880000
352.441803	153.500000
352.535248	152.840000
352.628693	153.020000
352.722137	153.240000
352.815582	153.520000
352.909027	153.580000
353.002472	153.540000
353.095917	153.680000
353.189362	154.080000
353.282806	153.840000
353.376251	153.680000
353.469696	153.040000
353.563141	153.480000
353.656586	153.140000
353.750061	152.940000
353.843475	152.860000
353.936981	153.780000
354.030396	153.000000
354.123871	152.940000
354.217285	153.600000
354.310760	154.200000
354.404175	154.060000
354.497681	154.120000
354.591095	154.140000
354.684570	153.180000
354.777985	152.740000
354.871490	152.100000
354.964935	152.700000
355.058380	153.140000
355.151855	153.280000
355.245300	153.800000
355.338745	154.640000
355.432220	154.340000
355.525665	153.500000
355.619110	154.200000
355.712585	153.540000
355.806030	152.840000
355.899475	152.260000
355.992950	152.840000
356.086426	153.040000
356.179871	153.540000
356.273346	153.600000
356.366791	154.240000
356.460266	154.380000
356.553711	153.260000
356.647186	152.620000
356.740631	152.840000
356.834106	152.080000
356.927551	152.120000
357.021027	152.800000
357.114471	153.000000
357.207947	152.740000
357.301422	152.980000
357.394867	152.860000
357.488342	152.760000
357.581818	153.000000
357.675262	153.520000
357.768738	153.540000
357.862213	153.280000
357.955658	153.340000
358.049133	153.500000
358.142609	153.740000
358.236053	153.780000
358.329529	153.980000
358.423035	154.240000
358.516449	153.740000
358.609955	153.700000
358.703400	154.460000
358.796906	154.240000
358.890350	153.400000
358.983826	154.020000
359.077271	153.440000
359.170776	152.720000
359.264221	152.460000
359.357727	152.920000
359.451172	152.960000
359.544647	153.220000
359.638123	153.320000
359.731598	153.700000
359.825073	154.140000
359.918549	153.780000
360.012024	154.020000
360.105499	153.760000
360.198975	154.060000
360.292450	153.760000
360.385925	153.780000
360.479401	153.020000
360.572876	153.220000
360.666351	153.300000
360.759857	153.240000
360.853302	153.360000
360.946808	153.080000
361.040253	153.120000
361.133759	152.640000
361.227203	152.920000
361.320709	152.300000
361.414154	153.100000
361.507660	153.600000
361.601105	154.320000
361.694641	154.660000
361.788086	155.060000
361.881592	155.580000
361.975067	154.900000
362.068542	155.140000
362.162018	154.520000
362.255524	154.020000
362.348999	153.600000
362.442474	154.040000
362.535950	153.060000
362.629456	153.160000
362.722931	153.440000
362.816406	153.440000
362.909882	153.900000
363.003387	154.000000
363.096863	154.260000
363.190338	154.540000
363.283875	154.480000
363.377319	153.800000
363.470825	154.240000
363.564301	153.780000
363.657806	153.800000
363.751282	153.340000
363.844788	154.200000
363.938232	153.440000
364.031769	154.060000
364.125214	154.280000
364.218750	154.940000
364.312225	153.520000
364.405731	154.020000
364.499207	153.480000
364.592712	153.100000
364.686188	152.760000
364.779694	153.180000
364.873169	153.100000
364.966675	153.140000
365.060150	152.940000
365.153656	153.460000
365.247131	153.680000
365.340637	154.020000
365.434143	154.360000
365.527618	154.560000
365.621155	153.280000
365.714600	153.340000
365.808136	153.000000
365.901611	151.860000
365.995117	151.780000
366.088593	152.380000
366.182129	151.960000
366.275604	152.080000
366.369110	152.620000
366.462585	152.600000
366.556122	153.440000
366.649567	153.840000
366.743103	153.740000
366.836609	153.640000
366.930115	153.940000
367.023590	153.540000
367.117096	153.260000
367.210602	153.360000
367.304108	154.120000
367.397614	154.700000
367.491119	155.040000
367.584595	155.200000
367.678101	155.520000
367.771606	154.840000
367.865112	153.900000
367.958649	153.080000
368.052124	152.800000
368.145660	152.120000
368.239136	153.180000
368.332672	153.420000
368.426147	153.600000
368.519684	153.840000
368.613159	154.640000
368.706696	153.620000
368.800171	153.640000
368.893707	153.660000
368.987183	153.500000
369.080719	153.060000
369.174225	153.240000
369.267731	153.480000
369.361237	153.460000
369.454742	153.780000
369.548248	154.540000
369.641754	154.320000
369.735260	154.020000
369.828766	153.240000
369.922272	153.660000
370.015808	152.780000
370.109314	152.780000
370.202820	152.700000
370.296356	153.820000
370.389832	153.240000
370.483368	153.160000
370.576874	153.000000
370.670410	153.200000
370.763885	152.160000
370.857422	152.120000
370.950928	152.020000
371.044464	152.980000
371.137939	153.160000
371.231476	154.040000
371.324982	154.480000
371.418518	154.980000
371.512024	154.460000
371.605560	154.320000
371.699066	154.200000
371.792572	153.620000
371.886108	153.720000
371.979614	153.380000
372.073120	153.620000
372.166656	153.780000
372.260162	154.420000
372.353668	153.940000
372.447205	154.200000
372.540710	154.160000
372.634277	153.620000
372.727753	153.340000
372.821320	153.440000
372.914795	153.200000
373.008362	152.780000
373.101837	153.440000
373.195404	153.200000
373.288879	153.180000
373.382446	154.080000
373.475922	154.160000
373.569489	154.400000
373.662964	154.980000
373.756531	154.900000
373.850037	154.520000
373.943573	154.220000
374.037109	153.040000
374.130615	152.920000
374.224152	153.360000
374.317657	152.840000
374.411194	153.960000
374.504730	154.280000
374.598236	153.820000
374.691772	153.200000
374.785309	153.560000
374.878815	152.080000
374.972351	152.640000
375.065887	152.740000
375.159454	153.580000
375.252930	153.560000
375.346497	154.600000
375.440002	154.800000
375.533569	154.600000
375.627045	153.700000
375.720612	153.600000
375.814117	153.500000
375.907684	153.060000
376.001160	152.880000
376.094727	152.540000
376.188232	153.240000
376.281799	153.000000
376.375336	152.960000
376.468872	153.820000
376.562408	154.340000
376.655914	153.520000
376.749451	153.840000
376.842987	153.940000
376.936523	153.480000
377.030060	153.500000
377.123596	153.740000
377.217133	153.360000
377.310669	153.420000
377.404205	153.720000
377.497772	154.460000
377.591278	154.660000
377.684845	155.300000
377.778351	155.460000
377.871918	155.200000
377.965424	154.200000
378.058990	154.000000
378.152496	153.320000
378.246063	153.240000
378.339569	153.200000
378.433136	153.140000
378.526642	153.180000
378.620209	153.260000
378.713745	152.840000
378.807312	153.520000
378.900848	154.020000
378.994385	154.240000
379.087921	153.640000
379.181458	154.000000
379.274994	153.180000
379.368530	152.600000
379.462097	152.760000
379.555634	153.380000
379.649170	152.780000
379.742706	153.060000
379.836273	153.600000
379.929810	152.940000
380.023376	152.680000
380.116882	152.560000
380.210449	152.100000
380.303986	151.920000
380.397552	151.660000
380.491058	151.900000
380.584656	151.920000
380.678162	152.200000
380.771729	152.060000
380.865265	153.000000
380.958832	153.100000
381.052368	153.440000
381.145935	153.960000
381.239471	154.520000
381.333008	154.080000
381.426575	153.920000
381.520111	154.300000
381.613647	154.300000
381.707214	153.960000
381.800751	153.420000
381.894318	153.960000
381.987854	153.560000
382.081421	153.040000
382.174988	153.240000
382.268524	153.380000
382.362091	153.180000
382.455627	154.240000
382.549194	153.940000
382.642731	153.420000
382.736298	153.260000
382.829834	152.820000
382.923401	152.980000
383.016937	153.580000
383.110504	154.360000
383.204041	154.800000
383.297607	155.480000
383.391174	154.460000
383.484741	155.140000
383.578278	154.360000
383.671844	154.000000
383.765411	153.020000
383.858948	153.420000
383.952515	152.660000
384.046051	153.420000
384.139618	153.840000
384.233185	154.480000
384.326721	154.300000
384.420288	154.700000
384.513855	154.480000
384.607422	154.860000
384.700989	154.980000
384.794525	154.480000
384.888123	154.440000
384.981659	154.160000
385.075226	153.260000
385.168762	152.600000
385.262360	152.940000
385.355896	151.820000
385.449463	151.540000
385.542999	151.660000
385.636597	152.760000
385.730164	152.700000
385.823730	152.620000
385.917267	152.720000
386.010834	153.260000
386.104401	152.700000
386.197968	153.180000
386.291534	154.160000
386.385101	154.020000
386.478668	154.580000
386.572235	154.480000
386.665802	153.380000
386.759338	153.080000
386.852905	153.080000
386.946472	152.060000
387.040070	152.220000
387.133606	152.780000
387.227203	152.580000
387.320740	153.120000
387.414337	152.960000
387.507874	152.800000
387.601471	152.800000
387.695007	152.660000
387.788605	152.080000
387.882141	152.720000
387.975739	152.720000
388.069275	152.780000
388.162872	153.140000
388.256439	153.260000
388.350037	152.760000
388.443604	152.640000
388.537170	152.520000
388.630737	152.920000
388.724304	153.200000
388.817871	153.260000
388.911438	153.480000
389.005005	154.140000
389.098602	154.360000
389.192169	154.080000
389.285736	154.660000
389.379333	154.500000
389.472870	153.580000
389.566467	153.140000
389.660034	153.420000
389.753632	152.800000
389.847168	153.240000
389.940765	153.720000
390.034332	153.640000
390.127930	153.280000
390.221466	153.300000
390.315063	152.660000
390.408630	151.740000
390.502228	151.280000
390.595795	151.880000
390.689362	152.140000
390.782959	152.860000
390.876526	153.640000
390.970093	153.660000
391.063690	153.820000
391.157257	153.600000
391.250824	153.400000
391.344421	153.340000
391.437988	153.980000
391.531555	154.140000
391.625153	154.360000
391.718750	154.560000
391.812317	154.380000
391.905914	154.000000
391.999481	153.620000
392.093079	153.840000
392.186615	154.180000
392.280243	154.200000
392.373779	154.500000
392.467407	155.220000
392.560944	154.820000
392.654572	154.080000
392.748108	154.400000
392.841736	154.340000
392.935303	153.380000
393.028900	153.620000
393.122467	153.680000
393.216064	153.160000
393.309631	152.560000
393.403229	152.020000
393.496796	151.600000
393.590393	150.800000
393.683990	151.180000
393.777557	151.980000
393.871155	152.680000
393.964722	153.240000
394.058350	153.960000
394.151917	153.900000
394.245514	153.320000
394.339081	153.460000
394.432678	153.500000
394.526245	153.340000
394.619873	153.140000
394.713409	153.320000
394.807037	153.100000
394.900604	153.080000
394.994202	153.200000
395.087769	153.520000
395.181396	153.180000
395.274994	153.900000
395.368561	153.160000
395.462158	153.260000
395.555756	152.660000
395.649353	153.220000
395.742920	152.620000
395.836517	153.740000
395.930115	153.060000
396.023712	153.620000
396.117279	153.820000
396.210876	153.420000
396.304474	153.080000
396.398071	153.840000
396.491669	154.000000
396.585266	153.540000
396.678833	153.400000
396.772461	153.120000
396.866028	152.520000
396.959656	152.600000
397.053223	152.860000
397.146851	152.920000
397.240417	152.900000
397.334015	153.940000
397.427582	153.700000
397.521210	153.520000
397.614807	153.920000
397.708405	154.300000
397.802002	153.980000
397.895599	154.360000
397.989197	154.380000
398.082794	154.360000
398.176392	154.480000
398.269989	154.560000
398.363586	154.740000
398.457184	155.800000
398.550781	156.480000
398.644379	156.580000
398.737976	156.900000
398.831573	158.080000
398.925201	159.100000
399.018768	161.640000
399.112396	166.900000
399.205963	174.780000
399.299591	186.840000
399.393158	205.080000
399.486786	235.540000
399.580353	288.600000
399.673981	388.280000
399.767578	560.700000
399.861206	816.580000
399.954773	1135.040000
400.048401	1443.300000
400.141998	1662.280000
400.235596	1727.080000
400.329193	1622.740000
400.422791	1377.760000
400.516418	1073.000000
400.610016	781.400000
400.703613	551.700000
400.797211	391.080000
400.890808	291.400000
400.984436	233.960000
401.078033	201.920000
401.171631	183.300000
401.265259	173.840000
401.358826	168.420000
401.452484	164.960000
401.546051	162.500000
401.639679	160.880000
401.733246	159.920000
401.826904	158.760000
401.920471	157.200000
402.014099	156.660000
402.107697	156.160000
402.201324	155.540000
402.294891	155.440000
402.388550	155.940000
402.482147	155.860000
402.575745	155.580000
402.669373	155.260000
402.762970	154.420000
402.856567	154.000000
402.950195	154.040000
403.043793	153.960000
403.137390	154.720000
403.231018	153.840000
403.324615	154.760000
403.418243	154.200000
403.511841	154.580000
403.605469	154.140000
403.699066	155.260000
403.792694	154.800000
403.886292	154.740000
403.979919	154.500000
404.073517	154.320000
404.167145	154.620000
404.260712	154.500000
404.354370	154.400000
404.447937	154.520000
404.541595	154.720000
404.635162	154.600000
404.728821	154.980000
404.822418	154.520000
404.916046	154.360000
405.009644	154.560000
405.103271	154.680000
405.196899	153.960000
405.290497	154.520000
405.384125	154.660000
405.477722	153.760000
405.571350	153.500000
405.664948	153.820000
405.758575	153.500000
405.852203	152.900000
405.945801	153.240000
406.039429	152.960000
406.133057	152.500000
406.226654	152.480000
406.320312	152.860000
406.413879	153.060000
406.507538	153.280000
406.601135	153.020000
406.694763	153.780000
406.788361	153.560000
406.882019	153.260000
406.975586	153.520000
407.069244	154.420000
407.162872	154.180000
407.256470	154.020000
407.350098	154.060000
407.443726	153.540000
407.537323	152.920000
407.630951	152.860000
407.724579	152.560000
407.818207	153.100000
407.911804	153.100000
408.005432	153.020000
408.099060	153.180000
408.192688	153.820000
408.286285	153.400000
408.379913	153.300000
408.473572	153.620000
408.567169	152.880000
408.660828	152.920000
408.754395	152.860000
408.848053	152.980000
408.941650	152.980000
409.035309	153.020000
409.128906	152.860000
409.222565	153.200000
409.316132	153.200000
409.409790	152.860000
409.503387	153.040000
409.597046	153.000000
409.690674	153.020000
409.784302	153.280000
409.877930	153.640000
409.971558	154.100000
410.065186	154.220000
410.158783	153.960000
410.252411	153.920000
410.346039	154.000000
410.439667	153.520000
410.533295	153.680000
410.626923	154.060000
410.720551	153.640000
410.814209	154.080000
410.907806	154.360000
411.001465	153.660000
411.095062	153.660000
411.188721	154.160000
411.282318	153.680000
411.375977	153.140000
411.469574	153.420000
411.563232	152.800000
411.656830	152.300000
411.750488	152.180000
411.844086	152.320000
411.937744	152.800000
412.031372	153.000000
412.125000	153.180000
412.218628	153.340000
412.312256	154.360000
412.405884	154.580000
412.499512	154.460000
412.593170	154.860000
412.686798	154.620000
412.780426	153.880000
412.874054	153.740000
412.967682	153.760000
413.061310	154.000000
413.154968	154.660000
413.248566	154.860000
413.342224	154.160000
413.435852	154.480000
413.529510	154.160000
413.623108	153.020000
413.716766	152.780000
413.810364	153.660000
413.904022	153.080000
413.997650	152.600000
414.091309	153.860000
414.184906	153.480000
414.278564	152.860000
414.372192	153.480000
414.465851	154.100000
414.559479	153.460000
414.653107	154.460000
414.746735	154.300000
414.840393	154.140000
414.934021	154.340000
415.027649	154.000000
415.121277	153.940000
415.214935	154.560000
415.308563	154.420000
415.402191	153.580000
415.495850	153.600000
415.589478	152.860000
415.683136	152.200000
415.776733	152.540000
415.870422	153.320000
415.964020	153.120000
416.057678	153.360000
416.151306	153.440000
416.244965	153.120000
416.338562	152.660000
416.432251	153.660000
416.525848	154.440000
416.619507	154.940000
416.713165	155.340000
416.806793	155.340000
416.900421	154.980000
416.994080	154.140000
417.087708	154.100000
417.181366	153.560000
417.274994	153.740000
417.368622	153.800000
417.462280	154.640000
417.555908	154.320000
417.649567	154.340000
417.743195	154.560000
417.836853	154.560000
417.930481	154.340000
418.024170	154.460000
418.117767	155.060000
418.211426	155.000000
418.305054	154.760000
418.398712	153.960000
418.492340	154.120000
418.585999	154.260000
418.679626	154.280000
418.773285	154.640000
418.866913	155.300000
418.960571	155.200000
419.054230	155.000000
419.147858	155.020000
419.241516	154.740000
419.335144	154.480000
419.428802	154.500000
419.522461	154.200000
419.616089	153.540000
419.709747	153.900000
419.803375	154.000000
419.897034	154.020000
419.990662	154.040000
420.084320	154.700000
420.177979	155.060000
420.271606	155.120000
420.365295	155.320000
420.458893	155.580000
420.552582	155.720000
420.646210	155.300000
420.739868	155.000000
420.833496	154.620000
420.927155	154.020000
421.020782	153.660000
421.114471	153.200000
421.208069	153.380000
421.301758	153.620000
421.395386	154.020000
421.489044	153.600000
421.582703	153.480000
421.676361	154.020000
421.769989	153.520000
421.863647	153.780000
421.957306	154.320000
422.050934	154.880000
422.144592	154.520000
422.238251	154.620000
422.331909	154.080000
422.425537	153.880000
422.519196	153.740000
422.612854	153.520000
422.706543	153.300000
422.800140	153.860000
422.893829	153.220000
422.987457	152.840000
423.081146	152.940000
423.174744	153.600000
423.268433	153.140000
423.362061	153.860000
423.455750	153.940000
423.549347	153.660000
423.643036	152.720000
423.736664	153.340000
423.830353	153.260000
423.924011	153.800000
424.017639	153.440000
424.111298	154.020000
424.204956	153.580000
424.298615	153.400000
424.392273	153.080000
424.485931	153.400000
424.579559	153.420000
424.673218	153.600000
424.766876	153.740000
424.860535	153.380000
424.954193	153.480000
425.047882	153.940000
425.141510	153.820000
425.235199	153.980000
425.328796	153.980000
425.422485	154.040000
425.516113	153.440000
425.609802	153.460000
425.703430	153.520000
425.797119	153.620000
425.890747	153.920000
425.984436	154.300000
426.078064	154.340000
426.171753	154.240000
426.265411	153.980000
426.359070	154.100000
426.452728	153.620000
426.546356	153.620000
426.640015	153.600000
426.733673	153.960000
426.827332	153.080000
426.920990	154.160000
427.014648	153.820000
427.108307	153.740000
427.201965	154.420000
427.295624	155.060000
427.389282	154.100000
427.482941	154.420000
427.576630	154.680000
427.670258	153.820000
427.763947	153.640000
427.857574	153.580000
427.951263	153.180000
428.044922	152.720000
428.138611	153.040000
428.232239	153.760000
428.325928	154.600000
428.419556	155.260000
428.513245	155.100000
428.606903	155.060000
428.700562	154.060000
428.794220	153.040000
428.887878	152.480000
428.981537	153.140000
429.075195	153.180000
429.168854	153.940000
429.262512	154.540000
429.356201	154.880000
429.449860	154.620000
429.543518	154.620000
429.637177	154.760000
429.730835	154.560000
429.824493	154.500000
429.918182	154.740000
430.011810	154.460000
430.105530	153.480000
430.199158	153.780000
430.292847	153.720000
430.386475	153.480000
430.480164	153.380000
430.573792	153.640000
430.667511	153.640000
430.761139	153.680000
430.854828	154.180000
430.948456	154.680000
431.042145	155.220000
431.135834	154.900000
431.229492	155.080000
431.323151	154.900000
431.416809	154.560000
431.510468	154.360000
431.604156	154.420000
431.697815	154.240000
431.791473	153.860000
431.885132	153.720000
431.978821	154.240000
432.072479	154.500000
432.166138	155.240000
432.259827	155.380000
432.353485	155.840000
432.447174	155.440000
432.540802	155.260000
432.634491	154.860000
432.728149	155.240000
432.821838	155.760000
432.915466	155.760000
433.009186	155.900000
433.102814	155.520000
433.196503	155.220000
433.290131	154.860000
433.383850	155.000000
433.477509	155.120000
433.571167	156.040000
433.664856	156.460000
433.758514	156.880000
433.852173	156.900000
433.945862	156.680000
434.039520	155.660000
434.133179	154.860000
434.226868	154.340000
434.320526	153.600000
434.414185	154.300000
434.507874	154.100000
434.601562	154.580000
434.695221	154.360000
434.788910	154.640000
434.882538	154.200000
434.976257	154.140000
435.069885	154.180000
435.163574	154.280000
435.257233	153.800000
435.350922	153.820000
435.444580	153.660000
435.538269	153.100000
435.631897	153.680000
435.725616	154.700000
435.819275	155.140000
435.912964	156.300000
436.006622	157.140000
436.100311	156.620000
436.193970	155.840000
436.287628	155.280000
436.381317	154.600000
436.474976	154.040000
436.568665	153.720000
436.662323	154.100000
436.756012	154.040000
436.849670	154.140000
436.943390	154.020000
437.037018	154.080000
437.130737	153.820000
437.224365	153.740000
437.318085	153.800000
437.411713	153.860000
437.505432	154.380000
437.599060	154.960000
437.692780	155.700000
437.786407	155.760000
437.880127	155.980000
437.973755	155.700000
438.067474	155.180000
438.161133	154.840000
438.254822	155.340000
438.348480	154.680000
438.442169	155.200000
438.535828	155.720000
438.629517	155.060000
438.723175	153.860000
438.816864	154.720000
438.910553	153.980000
439.004211	153.720000
439.097900	153.560000
439.191559	153.840000
439.285248	152.940000
439.378906	153.140000
439.472626	152.720000
439.566284	152.800000
439.659973	153.400000
439.753632	153.680000
439.847321	154.420000
439.940979	154.620000
440.034698	154.940000
440.128326	154.200000
440.222046	154.140000
440.315674	152.980000
440.409393	153.280000
440.503082	152.980000
440.596741	153.180000
440.690430	153.520000
440.784088	153.740000
440.877777	152.840000
440.971466	153.260000
441.065125	152.920000
441.158813	152.860000
441.252502	153.120000
441.346161	153.800000
441.439850	153.700000
441.533539	154.160000
441.627197	154.500000
441.720886	154.120000
441.814606	154.680000
441.908234	154.920000
442.001953	154.540000
442.095612	154.180000
442.189301	154.480000
442.282959	153.740000
442.376678	153.180000
442.470306	154.220000
442.564026	154.120000
442.657684	154.040000
442.751404	154.060000
442.845032	154.800000
442.938751	153.740000
443.032440	153.880000
443.126099	153.620000
443.219788	154.340000
443.313477	154.100000
443.407166	154.620000
443.500824	154.580000
443.594513	154.880000
443.688202	154.280000
443.781891	153.600000
443.875549	153.240000
443.969238	153.080000
444.062927	153.020000
444.156647	153.020000
444.250275	153.740000
444.343994	154.300000
444.437653	154.480000
444.531372	154.440000
444.625031	154.320000
444.718719	153.660000
444.812378	152.960000
444.906097	152.780000
444.999756	152.540000
445.093445	152.460000
445.187103	153.100000
445.280823	153.700000
445.374512	153.280000
445.468201	153.560000
445.561859	153.640000
445.655548	153.420000
445.749237	152.880000
445.842926	153.220000
445.936615	153.600000
446.030304	153.400000
446.123962	153.560000
446.217651	153.520000
446.311340	153.860000
446.405029	153.460000
446.498749	153.300000
446.592407	152.760000
446.686096	153.240000
446.779755	152.780000
446.873474	152.760000
446.967133	153.180000
447.060852	152.920000
447.154510	152.660000
447.248230	152.880000
447.341858	153.000000
447.435577	152.580000
447.529236	152.680000
447.622955	152.540000
447.716644	152.640000
447.810333	152.580000
447.904022	152.800000
447.997711	153.120000
448.091400	153.400000
448.185059	153.220000
448.278748	153.360000
448.372437	153.320000
448.466125	153.400000
448.559814	153.400000
448.653503	154.140000
448.747192	154.500000
448.840912	155.120000
448.934570	155.180000
449.028290	155.520000
449.121948	154.780000
449.215637	153.880000
449.309296	153.220000
449.403015	153.420000
449.496674	153.120000
449.590393	153.200000
449.684052	153.420000
449.777771	154.320000
449.871429	153.240000
449.965149	153.080000
450.058838	153.480000
450.152527	154.200000
450.246216	153.540000
450.339905	154.280000
450.433594	153.980000
450.527283	154.240000
450.620972	153.440000
450.714661	153.520000
450.808350	153.680000
450.902039	154.020000
450.995728	153.640000
451.089417	153.560000
451.183105	153.560000
451.276794	154.020000
451.370514	153.660000
451.464172	152.940000
451.557892	153.040000
451.651550	153.280000
451.745270	152.540000
451.838928	152.020000
451.932648	152.660000
452.026306	153.100000
452.120026	152.460000
452.213684	152.960000
452.307404	153.640000
452.401062	153.880000
452.494781	154.280000
452.588470	154.700000
452.682159	154.040000
452.775848	154.120000
452.869537	153.180000
452.963226	152.240000
453.056915	151.980000
453.150604	152.140000
453.244293	152.380000
453.337982	153.460000
453.431671	154.080000
453.525360	154.580000
453.619049	154.920000
453.712769	154.780000
453.806427	153.920000
453.900146	153.160000
453.993805	152.760000
454.087555	152.840000
454.181213	152.880000
454.274933	153.040000
454.368591	153.440000
454.462311	153.340000
454.555969	152.900000
454.649689	153.800000
454.743347	153.600000
454.837067	153.940000
454.930756	154.740000
455.024445	154.980000
455.118134	154.060000
455.211853	154.360000
455.305542	154.160000
455.399231	154.020000
455.492920	153.960000
455.586609	153.980000
455.680298	154.360000
455.773987	153.720000
455.867676	153.440000
455.961365	153.640000
456.055084	153.240000
456.148773	152.700000
456.242493	153.200000
456.336151	153.140000
456.429871	153.320000
456.523529	153.980000
456.617249	153.960000
456.710907	154.680000
456.804626	154.320000
456.898315	153.840000
456.992035	153.580000
457.085693	153.440000
457.179413	152.260000
457.273102	153.280000
457.366791	153.540000
457.460480	154.000000
457.554199	154.920000
457.647888	155.120000
457.741577	154.280000
457.835266	154.080000
457.928955	153.920000
458.022644	153.480000
458.116364	154.000000
458.210052	153.900000
458.303741	153.900000
458.397461	153.400000
458.491119	153.000000
458.584839	152.800000
458.678528	152.860000
458.772247	152.560000
458.865906	153.020000
458.959625	154.000000
459.053284	154.020000
459.147003	153.760000
459.240692	154.460000
459.334412	153.760000
459.428070	153.040000
459.521790	152.840000
459.615479	152.980000
459.709198	153.200000
459.802887	153.300000
459.896576	153.040000
459.990265	153.200000
460.083954	153.320000
460.177673	152.600000
460.271362	152.680000
460.365051	152.920000
460.458740	152.500000
460.552429	152.160000
460.646149	152.220000
460.739838	152.060000
460.833527	152.200000
460.927246	152.140000
461.020905	152.180000
461.114655	152.100000
461.208313	152.300000
461.302032	151.600000
461.395691	151.880000
461.489441	152.320000
461.583099	152.280000
461.676819	152.200000
461.770477	153.120000
461.864197	152.960000
461.957916	152.800000
462.051605	152.340000
462.145294	153.420000
462.238983	152.880000
462.332703	153.640000
462.426392	154.320000
462.520081	155.020000
462.613770	154.040000
462.707489	154.240000
462.801178	153.920000
462.894867	153.500000
462.988556	153.080000
463.082275	153.160000
463.175964	152.800000
463.269684	153.160000
463.363342	153.340000
463.457092	152.980000
463.550751	153.220000
463.644470	153.360000
463.738129	152.680000
463.831879	152.680000
463.925537	153.640000
464.019257	153.800000
464.112946	153.900000
464.206665	153.940000
464.300323	153.640000
464.394043	153.320000
464.487762	153.080000
464.581451	153.520000
464.675140	153.460000
464.768829	153.520000
464.862549	153.520000
464.956238	153.640000
465.049927	153.440000
465.143646	153.560000
465.237335	153.400000
465.331024	153.540000
465.424713	153.540000
465.518433	153.420000
465.612152	153.000000
465.705811	153.080000
465.799561	153.180000
465.893219	152.940000
465.986938	153.000000
466.080597	153.360000
466.174347	153.560000
466.268005	153.620000
466.361725	153.640000
466.455414	153.460000
466.549133	153.140000
466.642792	153.160000
466.736542	152.300000
466.830231	152.560000
466.923920	152.540000
467.017609	152.800000
467.111328	152.600000
467.205017	153.080000
467.298706	152.680000
467.392426	153.000000
467.486115	153.220000
467.579803	152.720000
467.673523	153.100000
467.767212	153.620000
467.860901	153.200000
467.954651	153.480000
468.048309	154.080000
468.142029	153.980000
468.235718	153.680000
468.329437	153.720000
468.423096	153.440000
468.516846	153.160000
468.610504	152.780000
468.704224	152.260000
468.797913	152.280000
468.891632	152.520000
468.985291	152.460000
469.079010	152.780000
469.172729	152.640000
469.266418	153.120000
469.360107	152.880000
469.453827	152.920000
469.547516	152.920000
469.641205	153.760000
469.734924	153.640000
469.828613	154.100000
469.922302	154.480000
470.016022	154.240000
470.109711	154.140000
470.203430	153.620000
470.297150	152.520000
470.390808	152.820000
470.484558	152.900000
470.578217	153.160000
470.671936	153.860000
470.765625	154.880000
470.859344	154.300000
470.953003	154.560000
471.046753	154.280000
471.140411	153.700000
471.234131	153.600000
471.327820	154.060000
471.421539	153.820000
471.515228	153.380000
471.608948	153.700000
471.702637	153.140000
471.796326	152.680000
471.890045	153.180000
471.983734	153.680000
472.077423	153.400000
472.171143	153.940000
472.264832	153.780000
472.358521	153.320000
472.452240	152.740000
472.545929	153.220000
472.639648	153.120000
472.733337	153.520000
472.827057	153.720000
472.920746	154.060000
473.014465	154.360000
473.108124	154.480000
473.201874	154.500000
473.295532	154.280000
473.389252	154.580000
473.482941	154.320000
473.576660	153.700000
473.670319	153.500000
473.764069	153.700000
473.857727	153.720000
473.951477	153.960000
474.045166	154.440000
474.138855	154.200000
474.232574	153.880000
474.326263	153.600000
474.419952	153.460000
474.513672	153.600000
474.607361	153.620000
474.701050	154.440000
474.794769	154.920000
474.888458	154.820000
474.982178	154.800000
475.075867	155.040000
475.169586	154.260000
475.263275	154.160000
475.356995	153.980000
475.450653	153.500000
475.544403	153.200000
475.638062	154.240000
475.731812	153.580000
475.825470	153.340000
475.919189	153.820000
476.012878	154.020000
476.106598	152.940000
476.200256	153.540000
476.294006	153.640000
476.387695	153.380000
476.481384	153.340000
476.575104	153.580000
476.668793	153.180000
476.762512	153.120000
476.856201	153.740000
476.949890	153.500000
477.043610	153.200000
477.137299	153.160000
477.230988	153.620000
477.324707	153.000000
477.418396	153.900000
477.512146	154.100000
477.605804	154.260000
477.699524	154.180000
477.793213	154.080000
477.886932	153.520000
477.980591	152.920000
478.074341	152.600000
478.167999	151.840000
478.261749	152.060000
478.355408	152.000000
478.449127	152.780000
478.542816	153.740000
478.636536	154.680000
478.730225	154.660000
478.823944	154.820000
478.917633	154.720000
479.011322	154.360000
479.105042	154.120000
479.198730	154.260000
479.292450	154.360000
479.386139	154.560000
479.479828	154.520000
479.573547	154.800000
479.667267	154.420000
479.760925	154.240000
479.854675	154.220000
479.948334	154.260000
480.042084	153.320000
480.135742	153.700000
480.229462	153.200000
480.323151	153.080000
480.416870	152.620000
480.510529	152.880000
480.604279	152.440000
480.697937	153.400000
480.791656	152.840000
480.885345	152.660000
480.979065	152.860000
481.072754	153.260000
481.166473	153.360000
481.260132	153.480000
481.353882	153.620000
481.447540	153.340000
481.541260	153.280000
481.635010	152.520000
481.728668	152.840000
481.822388	152.880000
481.916077	153.040000
482.009796	153.000000
482.103485	153.180000
482.197205	153.160000
482.290863	153.400000
482.384613	153.640000
482.478271	153.300000
482.571991	153.520000
482.665680	153.400000
482.759399	154.180000
482.853058	154.460000
482.946808	154.760000
483.040466	154.400000
483.134216	154.380000
483.227875	153.700000
483.321594	154.060000
483.415283	154.100000
483.509003	154.020000
483.602661	154.000000
483.696411	154.240000
483.790070	153.660000
483.883789	153.540000
483.977478	154.260000
484.071198	154.240000
484.164917	153.640000
484.258606	153.220000
484.352325	153.500000
484.445984	153.280000
484.539734	153.520000
484.633392	153.040000
484.727142	153.480000
484.820801	153.040000
484.914520	152.960000
485.008209	153.100000
485.101929	153.980000
485.195587	153.760000
485.289337	153.680000
485.382996	153.520000
485.476715	153.400000
485.570404	153.580000
485.664124	153.600000
485.757782	154.360000
485.851532	154.060000
485.945190	153.820000
486.038910	153.520000
486.132599	153.860000
486.226318	152.980000
486.319977	153.100000
486.413727	153.900000
486.507446	153.600000
486.601105	153.140000
486.694855	153.180000
486.788513	152.980000
486.882233	152.600000
486.975922	152.580000
487.069641	152.600000
487.163300	152.740000
487.257050	154.040000
487.350708	153.840000
487.444427	153.880000
487.538116	153.980000
487.631836	154.120000
487.725494	153.500000
487.819214	153.380000
487.912903	153.460000
488.006622	153.660000
488.100281	153.620000
488.194031	153.460000
488.287689	153.900000
488.381409	154.460000
488.475098	154.180000
488.568817	154.460000
488.662476	153.900000
488.756226	153.380000
488.849945	152.440000
488.943604	152.560000
489.037354	152.600000
489.131012	152.880000
489.224731	152.740000
489.318390	152.760000
489.412140	153.020000
489.505798	152.960000
489.599518	152.780000
489.693207	153.020000
489.786926	153.260000
489.880585	152.600000
489.974335	152.640000
490.067993	153.700000
490.161713	154.260000
490.255371	155.240000
490.349121	155.600000
490.442780	155.440000
490.536499	154.340000
490.630188	153.980000
490.723907	153.100000
490.817566	153.000000
490.911285	152.980000
491.004974	153.120000
491.098694	152.760000
491.192413	153.340000
491.286102	153.160000
491.379822	153.280000
491.473480	153.560000
491.567200	153.580000
491.660889	152.660000
491.754608	153.140000
491.848267	153.080000
491.941986	152.840000
492.035675	152.880000
492.129395	153.500000
492.223053	153.300000
492.316772	153.360000
492.410461	153.360000
492.504181	153.660000
492.597839	153.220000
492.691559	153.400000
492.785248	153.680000
492.878967	153.600000
492.972626	153.260000
493.066345	153.360000
493.160034	152.860000
493.253754	152.480000
493.347412	152.200000
493.441132	152.540000
493.534882	153.300000
493.628540	153.980000
493.722260	154.060000
493.815918	154.940000
493.909668	155.420000
494.003326	155.320000
494.097046	155.020000
494.190704	154.780000
494.284454	154.200000
494.378113	153.660000
494.471832	153.300000
494.565491	153.120000
494.659210	153.400000
494.752899	153.700000
494.846619	153.620000
494.940277	153.880000
495.033997	153.740000
495.127686	153.360000
495.221405	153.040000
495.315063	152.980000
495.408783	153.000000
495.502441	153.080000
495.596191	153.260000
495.689850	153.240000
495.783569	153.740000
495.877228	153.700000
495.970947	153.400000
496.064697	153.320000
496.158356	154.280000
496.252075	153.640000
496.345734	153.280000
496.439453	154.320000
496.533142	154.520000
496.626862	154.220000
496.720520	154.440000
496.814240	154.320000
496.907898	153.740000
497.001617	153.700000
497.095306	152.740000
497.189026	152.780000
497.282684	153.180000
497.376404	153.620000
497.470062	153.380000
497.563782	154.180000
497.657471	154.220000
497.751190	153.940000
497.844849	153.440000
497.938568	153.860000
498.032227	153.560000
498.125946	153.620000
498.219635	153.500000
498.313354	153.580000
498.407074	153.180000
498.500732	153.060000
498.594452	153.120000
498.688110	152.820000
498.781830	152.480000
498.875519	152.400000
498.969238	152.240000
499.062897	151.980000
499.156616	152.700000
499.250275	153.020000
499.343994	152.700000
499.437653	153.160000
499.531372	153.540000
499.625061	153.660000
499.718781	153.720000
499.812439	154.360000
499.906158	154.460000
499.999817	154.080000
500.093536	153.780000
500.187195	153.760000
500.280914	153.780000
500.374573	153.600000
500.468323	153.440000
500.561981	153.880000
500.655701	153.440000
500.749420	153.060000
500.843079	153.160000
500.936798	153.380000
501.030457	153.160000
501.124176	153.700000
501.217834	153.940000
501.311554	153.840000
501.405212	153.740000
501.498962	152.960000
501.592621	152.800000
501.686340	153.420000
501.779999	153.320000
501.873718	153.540000
501.967377	154.200000
502.061096	154.460000
502.154755	153.780000
502.248474	154.080000
502.342133	154.220000
502.435852	154.060000
502.529510	154.740000
502.623230	155.380000
502.716888	154.700000
502.810608	154.340000
502.904266	154.680000
502.997986	153.640000
503.091705	152.900000
503.185364	153.100000
503.279083	153.440000
503.372772	153.240000
503.466492	153.140000
503.560150	153.180000
503.653870	153.560000
503.747528	153.300000
503.841248	153.200000
503.934906	153.600000
504.028625	153.660000
504.122284	153.540000
504.216003	154.400000
504.309662	154.120000
504.403381	154.380000
504.497040	154.180000
504.590759	153.980000
504.684418	153.520000
504.778137	154.260000
504.871796	154.260000
504.965515	154.360000
505.059174	154.760000
505.152893	154.160000
505.246521	153.560000
505.340240	153.260000
505.433899	153.400000
505.527618	153.300000
505.621338	153.700000
505.714996	153.660000
505.808716	153.520000
505.902374	153.820000
505.996094	153.960000
506.089752	153.780000
506.183472	153.780000
506.277130	154.120000
506.370850	153.840000
506.464508	153.420000
506.558228	153.460000
506.651886	153.140000
506.745605	153.060000
506.839264	153.020000
506.932983	153.200000
507.026611	153.280000
507.120331	153.940000
507.213989	153.120000
507.307709	153.220000
507.401367	153.540000
507.495087	154.300000
507.588745	153.900000
507.682465	155.220000
507.776123	155.160000
507.869843	154.800000
507.963531	154.380000
508.057190	154.920000
508.150909	153.660000
508.244568	154.060000
508.338287	153.980000
508.431946	153.520000
508.525665	153.000000
508.619324	153.260000
508.713013	153.300000
508.806671	153.540000
508.900391	154.480000
508.994049	154.860000
509.087769	154.580000
509.181427	154.380000
509.275146	154.240000
509.368774	153.180000
509.462494	152.900000
509.556152	153.060000
509.649872	153.280000
509.743530	153.280000
509.837250	153.680000
509.930878	153.960000
510.024597	154.200000
510.118256	153.720000
510.211975	153.940000
510.305695	153.740000
510.399353	153.820000
510.493042	154.320000
510.586700	154.600000
510.680420	154.860000
510.774078	154.520000
510.867798	154.840000
510.961426	153.960000
511.055145	153.900000
511.148804	153.560000
511.242523	154.280000
511.336151	154.000000
511.429871	154.740000
511.523529	154.700000
511.617249	154.460000
511.710876	154.080000
511.804596	153.500000
511.898254	153.180000
511.991974	153.480000
512.085632	152.980000
512.179321	153.160000
512.272949	153.660000
512.366699	154.300000
512.460327	154.180000
512.554077	155.460000
512.647766	155.460000
512.741394	155.120000
512.835144	155.140000
512.928772	154.920000
513.022461	154.500000
513.116150	153.980000
513.209839	154.640000
513.303467	153.940000
513.397217	153.280000
513.490845	153.200000
513.584595	153.040000
513.678223	152.320000
513.771912	151.780000
513.865601	152.240000
513.959290	151.760000
514.052917	152.180000
514.146667	152.720000
514.240295	153.340000
514.333984	154.040000
514.427673	154.020000
514.521362	154.400000
514.614990	153.720000
514.708740	153.780000
514.802368	153.380000
514.896057	153.520000
514.989746	154.000000
515.083435	154.120000
515.177124	154.540000
515.270752	154.240000
515.364502	154.520000
515.458130	154.200000
515.551819	154.240000
515.645508	153.680000
515.739197	154.040000
515.832825	154.120000
515.926575	153.820000
516.020203	154.140000
516.113892	154.540000
516.207520	154.080000
516.301270	154.140000
516.394897	153.960000
516.488586	154.140000
516.582275	154.280000
516.675964	153.800000
516.769592	153.340000
516.863281	154.060000
516.956970	154.040000
517.050659	153.380000
517.144287	153.960000
517.238037	154.200000
517.331665	153.440000
517.425354	153.000000
517.519043	152.740000
517.612732	152.940000
517.706421	152.640000
517.800049	152.580000
517.893738	152.300000
517.987427	152.760000
518.081116	152.140000
518.174744	151.820000
518.268433	152.340000
518.362122	153.100000
518.455811	152.760000
518.549438	153.640000
518.643127	154.940000
518.736816	154.340000
518.830505	153.740000
518.924133	154.100000
519.017822	154.060000
519.111511	153.220000
519.205200	153.720000
519.298828	153.720000
519.392517	153.280000
519.486206	153.320000
519.579895	153.420000
519.673523	152.900000
519.767212	153.200000
519.860901	154.020000
519.954590	153.760000
520.048279	153.380000
520.141907	153.320000
520.235596	153.980000
520.329224	153.920000
520.422974	153.940000
520.516602	153.940000
520.610291	153.600000
520.703918	153.200000
520.797607	152.480000
520.891296	152.240000
520.984985	152.820000
521.078613	153.580000
521.172302	152.980000
521.265930	154.320000
521.359680	155.140000
521.453308	154.860000
521.546997	154.960000
521.640625	155.440000
521.734314	154.380000
521.827942	153.720000
521.921692	154.020000
522.015320	153.920000
522.109009	153.540000
522.202698	153.880000
522.296326	153.960000
522.390015	154.100000
522.483704	153.960000
522.577393	153.700000
522.671021	153.240000
522.764709	152.860000
522.858337	152.940000
522.952026	153.060000
523.045654	153.960000
523.139404	154.980000
523.233032	155.200000
523.326721	154.920000
523.420349	155.020000
523.514038	154.180000
523.607666	153.960000
523.701355	153.600000
523.795044	153.420000
523.888733	153.520000
523.982361	154.080000
524.076050	153.680000
524.169678	154.500000
524.263367	154.200000
524.356995	153.540000
524.450684	153.240000
524.544373	153.020000
524.638062	152.300000
524.731750	152.580000
524.825378	152.960000
524.919067	152.480000
525.012695	152.520000
525.106384	152.500000
525.200012	152.580000
525.293701	152.380000
525.387329	152.940000
525.481018	152.940000
525.574646	153.420000
525.668396	153.500000
525.762024	153.880000
525.855713	154.080000
525.949341	153.640000
526.043030	153.660000
526.136658	153.300000
526.230347	152.780000
526.323975	152.400000
526.417664	152.760000
526.511292	152.760000
526.604980	153.220000
526.698608	153.180000
526.792297	153.280000
526.885925	153.580000
526.979614	153.680000
527.073303	153.180000
527.166931	153.140000
527.260620	153.580000
527.354309	153.780000
527.447998	153.400000
527.541626	153.320000
527.635315	153.880000
527.728943	154.040000
527.822632	153.740000
527.916260	153.960000
528.009949	154.200000
528.103577	153.940000
528.197266	153.300000
528.290894	153.560000
528.384583	153.380000
528.478210	153.400000
528.571899	153.720000
528.665527	154.200000
528.759216	154.240000
528.852844	154.580000
528.946533	154.660000
529.040161	154.420000
529.133850	153.920000
529.227478	153.980000
529.321167	154.380000
529.414856	154.680000
529.508484	155.180000
529.602173	154.640000
529.695801	154.300000
529.789490	153.780000
529.883057	153.440000
529.976746	153.320000
530.070374	154.380000
530.164062	154.320000
530.257690	154.540000
530.351379	154.800000
530.445007	154.240000
530.538696	153.500000
530.632324	153.680000
530.726013	153.560000
530.819641	153.320000
530.913330	153.860000
531.006958	154.020000
531.100647	153.980000
531.194275	153.780000
531.287964	153.660000
531.381592	153.040000
531.475220	153.380000
531.568848	153.120000
531.662537	152.840000
531.756226	153.220000
531.849854	153.360000
531.943542	153.180000
532.037170	152.880000
532.130859	153.580000
532.224487	153.300000
532.318176	153.020000
532.411804	153.180000
532.505432	154.020000
532.599060	153.780000
532.692749	153.780000
532.786377	154.420000
532.880066	154.020000
532.973694	153.380000
533.067383	153.100000
533.161011	153.320000
533.254639	153.200000
533.348267	153.220000
533.441956	153.520000
533.535583	153.300000
533.629272	152.960000
533.722900	152.380000
533.816589	152.520000
533.910156	152.920000
534.003845	152.880000
534.097534	152.800000
534.191162	153.280000
534.284851	153.240000
534.378479	152.620000
534.472107	152.680000
534.565735	152.780000
534.659424	153.220000
534.753052	153.120000
534.846741	153.160000
534.940369	154.100000
535.033997	154.100000
535.127625	153.580000
535.221313	154.460000
535.314941	154.240000
535.408630	153.360000
535.502197	153.960000
535.595886	154.100000
535.689514	153.400000
535.783203	154.060000
535.876831	154.720000
535.970459	154.640000
536.064087	154.200000
536.157776	154.020000
536.251404	153.780000
536.345093	153.120000
536.438721	152.720000
536.532349	152.900000
536.626038	153.200000
536.719666	153.160000
536.813293	153.340000
536.906921	153.520000
537.000610	153.960000
537.094238	153.900000
537.187866	153.920000
537.281494	153.780000
537.375183	153.980000
537.468811	153.400000
537.562439	153.320000
537.656067	153.480000
537.749756	153.440000
537.843384	153.620000
537.937012	154.000000
538.030640	153.920000
538.124329	153.520000
538.217896	154.180000
538.311584	154.100000
538.405212	153.960000
538.498901	154.140000
538.592468	154.960000
538.686157	154.440000
538.779785	153.480000
538.873413	153.380000
538.967102	153.320000
539.060730	152.720000
539.154358	152.900000
539.247986	153.660000
539.341675	154.020000
539.435242	154.060000
539.528931	154.240000
539.622559	153.960000
539.716187	154.420000
539.809814	154.200000
539.903503	154.320000
539.997070	154.140000
540.090759	154.000000
540.184387	153.620000
540.278015	154.300000
540.371643	154.180000
540.465332	154.380000
540.558899	154.520000
540.652588	154.340000
540.746216	153.720000
540.839844	153.920000
540.933472	153.540000
541.027100	153.400000
541.120728	153.540000
541.214417	153.480000
541.308044	153.880000
541.401672	153.720000
541.495300	153.680000
541.588928	153.600000
541.682617	153.660000
541.776184	153.060000
541.869873	153.620000
541.963440	154.200000
542.057129	154.060000
542.150757	154.060000
542.244385	153.660000
542.338013	153.080000
542.431641	152.820000
542.525269	152.860000
542.618958	153.420000
542.712524	153.880000
542.806213	153.720000
542.899780	153.620000
542.993469	153.440000
543.087036	152.780000
543.180725	152.360000
543.274292	153.060000
543.367981	153.340000
543.461548	153.880000
543.555237	154.020000
543.648926	154.840000
543.742493	155.400000
543.836182	155.320000
543.929749	155.020000
544.023437	155.040000
544.117004	154.840000
544.210693	154.280000
544.304260	154.160000
544.397949	153.820000
544.491516	154.280000
544.585205	154.060000
544.678772	153.500000
544.772461	154.240000
544.866028	154.240000
544.959717	153.820000
545.053284	153.340000
545.146973	154.080000
545.240540	153.600000
545.334229	154.240000
545.427795	154.240000
545.521423	154.600000
545.615051	154.180000
545.708679	154.380000
545.802307	154.160000
545.895935	154.300000
545.989624	155.200000
546.083191	155.020000
546.176880	155.020000
546.270447	154.460000
546.364136	154.640000
546.457703	153.720000
546.551331	153.860000
546.644958	153.820000
546.738586	154.360000
546.832214	154.020000
546.925842	153.980000
547.019409	154.160000
547.113098	153.600000
547.206665	153.320000
547.300354	153.460000
547.393921	153.760000
547.487549	154.160000
547.581177	154.080000
547.674805	153.940000
547.768433	153.460000
547.862061	153.580000
547.955627	152.660000
548.049316	153.440000
548.142883	153.820000
548.236572	154.120000
548.330139	153.920000
548.423767	154.320000
548.517456	153.640000
548.611023	154.100000
548.704651	153.620000
548.798279	153.880000
548.891907	154.500000
548.985474	154.680000
549.079163	154.780000
549.172729	154.700000
549.266357	153.820000
549.359985	153.260000
549.453613	152.720000
549.547180	151.960000
549.640869	152.480000
549.734436	152.740000
549.828064	153.320000
549.921631	153.720000
550.015320	153.560000
550.108887	153.940000
550.202515	153.920000
550.296143	153.060000
550.389771	153.240000
550.483337	153.140000
550.576965	152.880000
550.670593	153.480000
550.764221	153.680000
550.857849	153.460000
550.951477	153.400000
551.045105	152.720000
551.138672	152.520000
551.232300	152.160000
551.325928	152.560000
551.419556	152.880000
551.513123	153.460000
551.606750	152.980000
551.700378	153.380000
551.794006	153.180000
551.887573	153.180000
551.981201	153.540000
552.074768	153.960000
552.168457	153.340000
552.262024	154.060000
552.355652	154.100000
552.449219	154.540000
552.542847	154.700000
552.636475	154.940000
552.730103	154.020000
552.823669	153.920000
552.917297	153.000000
553.010864	152.520000
553.104553	152.820000
553.198181	152.720000
553.291748	153.200000
553.385376	153.380000
553.478943	153.420000
553.572571	153.520000
553.666199	153.720000
553.759827	153.140000
553.853394	152.780000
553.947021	152.840000
554.040588	153.080000
554.134216	153.320000
554.227783	154.020000
554.321411	154.820000
554.415039	154.460000
554.508667	154.280000
554.602234	154.320000
554.695862	153.540000
554.789429	153.440000
554.883057	153.960000
554.976624	153.660000
555.070251	153.520000
555.163818	153.700000
555.257507	153.400000
555.351074	153.500000
555.444702	154.680000
555.538330	153.920000
555.631897	154.240000
555.725525	154.160000
555.819092	153.600000
555.912720	152.100000
556.006287	153.360000
556.099915	153.000000
556.193481	153.200000
556.287109	153.680000
556.380676	153.780000
556.474304	153.700000
556.567871	153.960000
556.661499	153.460000
556.755066	153.400000
556.848694	153.900000
556.942261	153.160000
557.035889	153.200000
557.129517	153.760000
557.223145	154.400000
557.316711	154.280000
557.410339	154.840000
557.503906	154.700000
557.597473	154.800000
557.691040	154.100000
557.784668	153.980000
557.878296	153.800000
557.971863	154.000000
558.065491	153.780000
558.159058	153.760000
558.252686	154.720000
558.346252	155.420000
558.439880	154.920000
558.533447	154.640000
558.627075	154.080000
558.720642	153.120000
558.814270	152.380000
558.907837	152.420000
559.001465	152.120000
559.095032	153.220000
559.188660	153.500000
559.282227	153.180000
559.375854	153.620000
559.469360	153.640000
559.562988	153.900000
559.656555	153.820000
559.750183	154.000000
559.843750	154.300000
559.937378	154.480000
560.030945	153.800000
560.124573	0.000000
560.218140	0.000000
560.311707	0.000000
560.405334	0.000000
560.498901	0.000000
560.592529	0.000000
560.686096	0.000000
560.779724	0.000000
560.873291	0.000000
560.966858	0.000000
561.060425	0.000000
561.154053	0.000000
561.247620	0.000000
561.341248	0.000000
561.434814	0.000000
561.528381	0.000000
561.621948	0.000000
561.715576	0.000000
561.809143	0.000000
561.902771	0.000000
561.996277	0.000000
562.089905	0.000000
562.183472	0.000000
562.277100	0.000000
