Model Number: SPM-002-B   
Serial Number: 70087108
Firmware Version: 004.15.4
Exposure Time: 100000.000000us
Data Taken on: 15-01-2021 16:41:03.910
Wavelength	Amplitude
221.570786	0.000000
221.663406	0.000000
221.756027	0.000000
221.848648	0.000000
221.941269	0.000000
222.033905	0.000000
222.126526	0.000000
222.219162	0.000000
222.311798	0.000000
222.404419	0.000000
222.497055	0.000000
222.589676	0.000000
222.682312	0.000000
222.774933	0.000000
222.867569	0.000000
222.960205	0.000000
223.052841	0.000000
223.145462	0.000000
223.238098	0.000000
223.330734	0.000000
223.423386	0.000000
223.516022	0.000000
223.608658	0.000000
223.701309	0.000000
223.793945	0.000000
223.886581	0.000000
223.979218	0.000000
224.071869	0.000000
224.164505	0.000000
224.257156	0.000000
224.349792	0.000000
224.442444	0.000000
224.535095	0.000000
224.627747	0.000000
224.720398	0.000000
224.813034	0.000000
224.905685	0.000000
224.998337	152.080000
225.090988	152.180000
225.183640	152.180000
225.276291	151.940000
225.368942	152.220000
225.461594	153.120000
225.554245	153.280000
225.646912	153.420000
225.739578	154.020000
225.832230	154.440000
225.924896	153.480000
226.017548	153.960000
226.110199	154.640000
226.202866	153.900000
226.295532	153.420000
226.388184	153.420000
226.480850	152.700000
226.573517	151.660000
226.666168	151.860000
226.758835	152.560000
226.851501	153.440000
226.944183	153.820000
227.036850	153.800000
227.129517	153.820000
227.222183	153.780000
227.314850	153.180000
227.407516	153.100000
227.500198	154.220000
227.592865	154.060000
227.685532	153.480000
227.778214	153.500000
227.870880	153.940000
227.963562	153.880000
228.056229	154.340000
228.148926	154.560000
228.241592	155.400000
228.334274	154.880000
228.426956	154.360000
228.519638	154.260000
228.612305	153.860000
228.704987	153.600000
228.797668	153.640000
228.890350	153.520000
228.983032	152.820000
229.075714	153.600000
229.168396	153.280000
229.261108	152.620000
229.353790	152.800000
229.446472	153.340000
229.539169	153.040000
229.631851	152.540000
229.724533	153.280000
229.817230	153.260000
229.909912	154.560000
230.002609	154.780000
230.095306	155.040000
230.187988	155.240000
230.280685	155.080000
230.373383	153.460000
230.466095	152.960000
230.558792	153.280000
230.651474	153.080000
230.744171	153.120000
230.836868	153.320000
230.929581	153.760000
231.022278	153.620000
231.114975	153.360000
231.207672	152.980000
231.300369	153.360000
231.393082	153.160000
231.485779	153.000000
231.578506	153.100000
231.671204	153.460000
231.763916	153.240000
231.856613	153.500000
231.949326	153.480000
232.042023	153.360000
232.134735	153.360000
232.227448	153.020000
232.320160	153.100000
232.412872	153.260000
232.505585	154.360000
232.598297	154.780000
232.691010	154.820000
232.783722	154.160000
232.876450	154.900000
232.969162	153.820000
233.061874	153.040000
233.154587	153.100000
233.247314	153.720000
233.340027	153.000000
233.432739	153.940000
233.525467	153.860000
233.618179	154.300000
233.710907	153.780000
233.803635	154.060000
233.896347	153.160000
233.989090	153.880000
234.081818	153.400000
234.174545	153.840000
234.267258	153.500000
234.359985	154.220000
234.452713	154.140000
234.545441	154.300000
234.638168	153.940000
234.730896	154.020000
234.823639	153.400000
234.916367	153.520000
235.009094	153.560000
235.101822	153.700000
235.194580	153.740000
235.287308	153.980000
235.380051	153.320000
235.472778	153.760000
235.565521	153.720000
235.658249	153.280000
235.750992	153.260000
235.843719	153.140000
235.936462	152.840000
236.029205	152.700000
236.121948	152.640000
236.214691	153.100000
236.307449	154.140000
236.400192	153.840000
236.492935	153.960000
236.585678	153.980000
236.678421	153.880000
236.771164	153.460000
236.863907	153.880000
236.956665	153.640000
237.049408	155.640000
237.142151	154.720000
237.234909	155.500000
237.327652	155.480000
237.420410	155.680000
237.513153	154.220000
237.605927	154.440000
237.698669	153.500000
237.791428	152.780000
237.884186	153.100000
237.976944	152.780000
238.069702	153.340000
238.162445	152.960000
238.255203	153.260000
238.347961	153.280000
238.440720	153.180000
238.533478	152.720000
238.626266	152.720000
238.719025	152.720000
238.811783	152.440000
238.904541	152.500000
238.997314	152.700000
239.090073	152.600000
239.182831	153.060000
239.275604	153.880000
239.368362	153.900000
239.461136	153.760000
239.553909	153.920000
239.646667	153.500000
239.739441	153.100000
239.832214	153.360000
239.925003	153.540000
240.017761	154.100000
240.110535	154.860000
240.203308	154.400000
240.296082	154.140000
240.388855	153.900000
240.481628	153.920000
240.574417	153.440000
240.667191	153.520000
240.759964	153.540000
240.852737	153.720000
240.945526	153.280000
241.038315	152.860000
241.131088	153.040000
241.223877	153.400000
241.316650	153.160000
241.409439	153.720000
241.502228	153.840000
241.595001	154.220000
241.687790	154.140000
241.780579	154.220000
241.873367	154.100000
241.966141	154.360000
242.058929	153.480000
242.151718	153.500000
242.244507	153.980000
242.337311	153.060000
242.430099	153.940000
242.522903	154.320000
242.615692	154.000000
242.708481	153.880000
242.801270	154.580000
242.894073	153.860000
242.986862	153.780000
243.079651	154.380000
243.172455	153.860000
243.265244	153.900000
243.358063	153.380000
243.450867	153.720000
243.543655	153.460000
243.636459	153.680000
243.729263	154.240000
243.822067	154.540000
243.914856	154.580000
244.007660	154.280000
244.100464	154.320000
244.193268	153.420000
244.286072	153.400000
244.378876	152.840000
244.471680	152.980000
244.564499	153.260000
244.657318	154.080000
244.750122	154.240000
244.842926	153.880000
244.935745	154.080000
245.028549	153.580000
245.121368	153.160000
245.214172	153.000000
245.306992	153.500000
245.399796	153.420000
245.492615	153.740000
245.585434	153.340000
245.678253	153.640000
245.771072	153.700000
245.863892	153.760000
245.956711	153.780000
246.049530	154.040000
246.142349	153.660000
246.235168	153.880000
246.327988	154.280000
246.420807	153.900000
246.513626	154.020000
246.606445	153.920000
246.699280	153.540000
246.792099	153.160000
246.884918	153.040000
246.977753	152.400000
247.070587	152.640000
247.163422	152.640000
247.256241	152.540000
247.349075	152.980000
247.441895	153.500000
247.534729	153.200000
247.627563	153.240000
247.720383	154.040000
247.813217	153.600000
247.906052	153.300000
247.998886	153.660000
248.091736	153.500000
248.184570	152.800000
248.277405	152.940000
248.370239	154.020000
248.463074	154.980000
248.555908	155.540000
248.648743	155.540000
248.741592	156.080000
248.834427	155.200000
248.927261	153.840000
249.020111	154.200000
249.112946	154.940000
249.205795	154.000000
249.298630	154.280000
249.391495	154.500000
249.484344	153.780000
249.577179	153.400000
249.670029	154.140000
249.762878	154.300000
249.855728	154.580000
249.948563	154.740000
250.041412	154.040000
250.134262	154.180000
250.227112	154.080000
250.319962	153.660000
250.412827	153.700000
250.505692	153.200000
250.598541	153.240000
250.691391	153.240000
250.784241	153.360000
250.877106	153.420000
250.969955	153.840000
251.062805	154.040000
251.155670	154.300000
251.248520	154.100000
251.341385	154.320000
251.434235	154.020000
251.527100	153.700000
251.619965	153.220000
251.712814	154.100000
251.805695	153.880000
251.898560	154.700000
251.991425	154.740000
252.084290	155.000000
252.177155	154.220000
252.270020	153.900000
252.362885	153.580000
252.455750	153.640000
252.548615	153.060000
252.641479	153.380000
252.734360	153.280000
252.827240	152.960000
252.920105	153.040000
253.012970	153.000000
253.105850	152.500000
253.198715	152.380000
253.291595	152.780000
253.384460	152.020000
253.477341	152.140000
253.570221	152.600000
253.663086	152.580000
253.755966	153.120000
253.848846	153.280000
253.941727	153.600000
254.034592	153.360000
254.127472	153.020000
254.220367	152.820000
254.313248	153.340000
254.406128	152.920000
254.499008	153.340000
254.591904	154.520000
254.684784	154.800000
254.777664	154.660000
254.870544	154.620000
254.963440	154.300000
255.056335	154.060000
255.149216	153.420000
255.242111	154.100000
255.334991	154.540000
255.427887	154.760000
255.520767	154.700000
255.613663	155.020000
255.706558	154.180000
255.799438	154.060000
255.892334	153.480000
255.985229	153.580000
256.078125	153.440000
256.171021	153.420000
256.263916	153.880000
256.356812	154.460000
256.449707	154.420000
256.542603	154.260000
256.635498	154.860000
256.728394	154.200000
256.821289	153.760000
256.914215	154.000000
257.007080	154.140000
257.100006	154.100000
257.192932	154.400000
257.285828	154.780000
257.378723	154.220000
257.471619	154.020000
257.564545	153.360000
257.657440	153.600000
257.750336	153.900000
257.843262	153.960000
257.936157	155.240000
258.029053	155.660000
258.121979	155.700000
258.214874	155.120000
258.307800	154.900000
258.400696	153.540000
258.493622	153.720000
258.586517	152.640000
258.679443	153.000000
258.772339	152.540000
258.865265	152.500000
258.958160	151.880000
259.051086	153.040000
259.144012	153.100000
259.236938	154.340000
259.329834	154.200000
259.422791	154.240000
259.515717	153.420000
259.608612	152.800000
259.701538	152.540000
259.794464	152.920000
259.887390	153.000000
259.980316	153.320000
260.073212	153.400000
260.166138	152.480000
260.259064	152.860000
260.351990	153.520000
260.444916	153.560000
260.537842	153.920000
260.630768	154.420000
260.723694	154.280000
260.816620	153.860000
260.909546	153.800000
261.002472	153.620000
261.095398	153.340000
261.188354	152.840000
261.281281	152.420000
261.374207	152.400000
261.467133	153.100000
261.560089	153.520000
261.653015	153.240000
261.745972	154.100000
261.838867	154.600000
261.931824	154.680000
262.024780	154.340000
262.117706	155.000000
262.210663	154.620000
262.303589	154.380000
262.396515	154.100000
262.489471	154.960000
262.582397	154.600000
262.675354	154.280000
262.768280	154.140000
262.861237	153.960000
262.954163	153.920000
263.047119	154.240000
263.140045	153.880000
263.233002	153.780000
263.325958	153.640000
263.418884	152.860000
263.511841	152.840000
263.604797	153.140000
263.697723	153.060000
263.790680	153.100000
263.883636	153.880000
263.976593	153.600000
264.069550	153.860000
264.162476	153.940000
264.255463	153.920000
264.348419	153.720000
264.441376	154.260000
264.534332	153.620000
264.627289	153.820000
264.720245	154.520000
264.813202	153.760000
264.906158	153.720000
264.999115	154.820000
265.092072	154.480000
265.185028	154.640000
265.277985	155.280000
265.370941	155.360000
265.463898	154.760000
265.556854	154.620000
265.649811	153.400000
265.742798	153.300000
265.835754	152.920000
265.928711	153.260000
266.021667	153.440000
266.114655	154.000000
266.207611	154.100000
266.300568	153.700000
266.393585	153.120000
266.486511	153.400000
266.579498	152.420000
266.672485	152.120000
266.765442	152.320000
266.858429	152.960000
266.951385	152.680000
267.044342	153.500000
267.137329	153.600000
267.230316	154.180000
267.323273	153.760000
267.416260	154.320000
267.509216	154.040000
267.602203	153.920000
267.695160	154.000000
267.788147	153.960000
267.881134	153.300000
267.974091	153.560000
268.067078	153.240000
268.160065	152.480000
268.253052	152.400000
268.346008	152.600000
268.438995	152.320000
268.531982	152.700000
268.624969	152.860000
268.717987	153.320000
268.810944	153.220000
268.903961	153.140000
268.996948	152.700000
269.089905	153.020000
269.182892	153.060000
269.275879	153.540000
269.368866	153.460000
269.461853	154.100000
269.554871	154.020000
269.647858	154.100000
269.740845	154.100000
269.833832	154.920000
269.926819	154.720000
270.019806	154.820000
270.112793	154.100000
270.205811	154.360000
270.298798	153.800000
270.391785	154.220000
270.484772	153.960000
270.577789	154.300000
270.670776	153.460000
270.763763	153.500000
270.856750	153.340000
270.949768	152.880000
271.042786	152.960000
271.135773	153.360000
271.228790	153.580000
271.321808	153.380000
271.414795	153.320000
271.507782	153.000000
271.600800	152.680000
271.693817	152.700000
271.786804	152.920000
271.879822	153.420000
271.972809	153.380000
272.065826	153.860000
272.158844	153.460000
272.251831	153.900000
272.344849	153.880000
272.437866	153.660000
272.530853	153.840000
272.623871	154.180000
272.716888	153.140000
272.809906	153.520000
272.902893	153.720000
272.995911	153.060000
273.088928	152.820000
273.181946	153.220000
273.274963	152.760000
273.367981	152.660000
273.460999	152.960000
273.554047	153.700000
273.647003	154.420000
273.740051	154.620000
273.833069	155.460000
273.926086	155.380000
274.019135	154.720000
274.112152	154.240000
274.205170	154.260000
274.298187	153.800000
274.391205	153.380000
274.484222	153.320000
274.577240	153.020000
274.670258	152.740000
274.763306	152.840000
274.856323	153.780000
274.949341	154.220000
275.042358	154.660000
275.135406	154.840000
275.228424	154.900000
275.321442	154.340000
275.414490	153.960000
275.507507	154.140000
275.600525	154.640000
275.693573	154.220000
275.786591	154.100000
275.879669	154.320000
275.972656	153.700000
276.065735	153.260000
276.158752	153.960000
276.251801	154.680000
276.344818	154.840000
276.437866	155.280000
276.530884	154.840000
276.623932	153.880000
276.716980	153.540000
276.809998	153.320000
276.903046	153.060000
276.996094	154.100000
277.089111	154.780000
277.182159	155.140000
277.275208	154.880000
277.368256	154.960000
277.461304	154.660000
277.554321	154.260000
277.647369	154.240000
277.740417	154.340000
277.833466	154.200000
277.926514	153.760000
278.019562	154.480000
278.112610	153.580000
278.205688	153.680000
278.298706	153.740000
278.391785	153.640000
278.484833	152.760000
278.577881	152.820000
278.670929	153.280000
278.763977	153.300000
278.857025	153.940000
278.950073	154.180000
279.043121	154.400000
279.136169	153.900000
279.229248	153.800000
279.322296	153.540000
279.415344	153.560000
279.508392	153.440000
279.601440	153.440000
279.694519	153.540000
279.787567	153.160000
279.880615	152.920000
279.973694	152.940000
280.066742	152.920000
280.159790	152.820000
280.252869	152.860000
280.345917	153.180000
280.438995	152.800000
280.532074	152.860000
280.625122	153.400000
280.718201	154.420000
280.811279	154.280000
280.904327	154.640000
280.997406	154.800000
281.090454	154.600000
281.183533	153.500000
281.276581	153.560000
281.369659	153.340000
281.462738	153.440000
281.555786	153.360000
281.648865	153.780000
281.741943	153.740000
281.835022	154.360000
281.928070	153.880000
282.021149	154.020000
282.114227	153.780000
282.207306	153.580000
282.300385	153.600000
282.393433	153.960000
282.486511	153.680000
282.579590	154.180000
282.672668	154.840000
282.765747	154.120000
282.858856	153.960000
282.951904	154.300000
283.045013	154.400000
283.138062	154.480000
283.231171	155.200000
283.324249	155.660000
283.417328	155.700000
283.510406	155.060000
283.603485	154.820000
283.696564	154.760000
283.789642	154.560000
283.882751	154.040000
283.975830	154.860000
284.068909	154.660000
284.161987	155.100000
284.255066	154.520000
284.348175	154.460000
284.441254	153.740000
284.534332	154.260000
284.627441	153.720000
284.720520	153.640000
284.813599	153.960000
284.906708	154.420000
284.999786	153.660000
285.092896	153.200000
285.185974	154.380000
285.279053	153.760000
285.372192	153.480000
285.465240	153.980000
285.558380	154.260000
285.651459	153.540000
285.744568	154.440000
285.837677	154.140000
285.930756	154.020000
286.023865	153.840000
286.116943	153.320000
286.210052	153.100000
286.303162	153.180000
286.396240	153.140000
286.489349	153.060000
286.582458	153.500000
286.675568	153.400000
286.768646	153.600000
286.861755	153.900000
286.954865	154.620000
287.047974	154.200000
287.141083	153.960000
287.234161	153.820000
287.327271	153.140000
287.420380	153.600000
287.513519	153.760000
287.606598	154.060000
287.699738	154.220000
287.792816	154.600000
287.885956	154.020000
287.979034	153.980000
288.072174	153.700000
288.165283	153.440000
288.258392	153.680000
288.351501	152.980000
288.444611	153.320000
288.537720	153.980000
288.630859	153.840000
288.723969	153.760000
288.817078	154.620000
288.910187	154.520000
289.003296	153.720000
289.096436	153.500000
289.189545	153.180000
289.282654	152.480000
289.375763	152.880000
289.468903	153.380000
289.562012	153.680000
289.655121	153.680000
289.748260	154.100000
289.841400	154.040000
289.934509	154.000000
290.027649	154.440000
290.120728	154.240000
290.213898	154.300000
290.306976	153.960000
290.400146	153.980000
290.493256	153.400000
290.586395	153.960000
290.679535	154.020000
290.772644	153.880000
290.865784	153.060000
290.958893	153.180000
291.052032	152.820000
291.145172	152.920000
291.238281	153.040000
291.331421	153.360000
291.424561	154.040000
291.517670	153.820000
291.610809	153.600000
291.703949	153.240000
291.797089	153.540000
291.890228	152.780000
291.983337	152.520000
292.076477	152.160000
292.169617	152.620000
292.262756	152.640000
292.355927	152.600000
292.449036	153.020000
292.542206	153.560000
292.635315	153.820000
292.728485	153.820000
292.821625	153.880000
292.914764	155.000000
293.007904	155.120000
293.101044	155.220000
293.194183	155.320000
293.287323	155.500000
293.380463	154.760000
293.473602	154.320000
293.566742	154.360000
293.659882	154.620000
293.753021	155.000000
293.846191	154.720000
293.939331	154.280000
294.032471	153.680000
294.125610	153.300000
294.218781	153.180000
294.311920	153.620000
294.405060	154.080000
294.498230	154.080000
294.591370	154.080000
294.684540	153.620000
294.777679	153.180000
294.870850	153.480000
294.963959	153.280000
295.057159	153.260000
295.150299	153.700000
295.243469	153.580000
295.336609	152.840000
295.429779	153.240000
295.522919	153.640000
295.616089	153.700000
295.709229	154.220000
295.802399	154.540000
295.895569	154.220000
295.988708	153.980000
296.081879	153.900000
296.175018	153.340000
296.268188	153.240000
296.361359	153.840000
296.454529	153.700000
296.547668	153.260000
296.640839	153.680000
296.734009	153.620000
296.827179	153.460000
296.920319	153.540000
297.013519	153.620000
297.106659	153.640000
297.199860	153.620000
297.292999	153.540000
297.386200	153.520000
297.479309	153.560000
297.572510	153.460000
297.665680	153.380000
297.758850	153.080000
297.852020	153.060000
297.945190	152.820000
298.038361	152.500000
298.131531	153.720000
298.224701	153.860000
298.317871	153.400000
298.411072	153.280000
298.504242	153.260000
298.597412	152.180000
298.690582	152.740000
298.783752	153.080000
298.876923	153.440000
298.970093	153.600000
299.063293	154.080000
299.156464	154.060000
299.249634	154.160000
299.342834	154.280000
299.436005	154.800000
299.529205	154.680000
299.622345	154.380000
299.715576	153.820000
299.808716	153.760000
299.901917	153.400000
299.995117	153.540000
300.088287	153.700000
300.181488	153.800000
300.274658	153.660000
300.367828	153.540000
300.461029	153.580000
300.554199	153.880000
300.647400	154.000000
300.740601	154.520000
300.833771	154.360000
300.926971	154.520000
301.020142	153.760000
301.113342	153.660000
301.206512	153.660000
301.299713	154.080000
301.392914	153.580000
301.486084	154.080000
301.579285	154.460000
301.672516	154.640000
301.765686	154.180000
301.858887	153.980000
301.952057	153.660000
302.045288	153.420000
302.138458	152.980000
302.231659	153.100000
302.324860	153.560000
302.418060	153.460000
302.511261	153.380000
302.604462	153.880000
302.697662	153.740000
302.790863	153.300000
302.884064	153.340000
302.977264	153.360000
303.070465	153.180000
303.163666	154.360000
303.256866	154.620000
303.350067	154.580000
303.443268	154.480000
303.536469	154.440000
303.629669	153.040000
303.722870	153.140000
303.816071	152.880000
303.909271	153.120000
304.002472	152.320000
304.095673	152.440000
304.188934	151.760000
304.282104	152.720000
304.375336	152.560000
304.468506	152.760000
304.561768	152.740000
304.654968	153.380000
304.748169	152.440000
304.841370	152.660000
304.934601	153.120000
305.027802	152.940000
305.121002	152.800000
305.214233	153.320000
305.307434	153.200000
305.400665	153.560000
305.493866	153.700000
305.587097	153.860000
305.680298	153.400000
305.773499	154.080000
305.866730	153.560000
305.959930	154.200000
306.053162	154.060000
306.146393	154.040000
306.239594	153.040000
306.332825	153.340000
306.426025	153.520000
306.519287	153.640000
306.612488	153.860000
306.705719	154.000000
306.798920	153.700000
306.892181	152.940000
306.985352	152.340000
307.078613	151.920000
307.171844	152.440000
307.265045	152.020000
307.358276	151.620000
307.451508	152.240000
307.544739	152.700000
307.637970	152.040000
307.731201	152.080000
307.824402	153.200000
307.917633	153.380000
308.010864	154.140000
308.104095	154.860000
308.197327	155.240000
308.290558	154.760000
308.383789	154.240000
308.477020	153.380000
308.570251	152.720000
308.663483	152.380000
308.756714	152.500000
308.849976	152.540000
308.943176	152.900000
309.036438	152.780000
309.129639	152.960000
309.222900	152.800000
309.316101	152.720000
309.409393	152.180000
309.502625	152.360000
309.595856	152.420000
309.689087	152.780000
309.782318	153.000000
309.875580	153.160000
309.968811	153.380000
310.062042	153.100000
310.155273	152.700000
310.248535	153.260000
310.341766	153.240000
310.434998	153.220000
310.528259	153.420000
310.621490	153.660000
310.714722	152.880000
310.807983	152.940000
310.901215	152.680000
310.994476	152.660000
311.087708	152.220000
311.181000	152.340000
311.274200	151.940000
311.367462	151.940000
311.460693	151.820000
311.553986	152.940000
311.647186	153.380000
311.740479	154.380000
311.833710	154.520000
311.926971	154.580000
312.020203	153.360000
312.113464	153.220000
312.206726	152.480000
312.299957	152.400000
312.393219	153.160000
312.486481	153.520000
312.579712	152.880000
312.672974	153.300000
312.766235	153.200000
312.859497	152.580000
312.952759	152.640000
313.045990	154.060000
313.139252	153.180000
313.232513	153.400000
313.325775	153.320000
313.419037	153.120000
313.512299	152.000000
313.605530	152.920000
313.698822	153.180000
313.792053	153.460000
313.885345	153.120000
313.978577	153.360000
314.071869	152.700000
314.165131	152.480000
314.258392	152.800000
314.351654	152.860000
314.444916	152.280000
314.538177	152.960000
314.631439	153.400000
314.724701	153.100000
314.817993	153.260000
314.911255	153.680000
315.004517	153.160000
315.097778	152.540000
315.191040	152.980000
315.284302	153.400000
315.377594	153.260000
315.470856	153.560000
315.564117	153.420000
315.657379	152.480000
315.750671	151.880000
315.843933	152.560000
315.937195	152.100000
316.030518	151.980000
316.123749	152.320000
316.217041	153.260000
316.310303	152.760000
316.403595	153.300000
316.496857	154.040000
316.590149	154.640000
316.683411	153.740000
316.776703	153.440000
316.869965	153.320000
316.963257	152.860000
317.056519	151.880000
317.149811	152.060000
317.243073	152.280000
317.336365	152.060000
317.429626	152.540000
317.522919	152.960000
317.616180	153.140000
317.709473	152.880000
317.802765	153.000000
317.896027	152.700000
317.989319	153.380000
318.082611	153.140000
318.175873	153.100000
318.269165	153.180000
318.362488	153.240000
318.455750	152.440000
318.549042	153.140000
318.642303	153.700000
318.735626	153.340000
318.828888	153.300000
318.922211	152.960000
319.015472	153.140000
319.108765	152.240000
319.202057	152.180000
319.295349	152.320000
319.388641	152.380000
319.481934	151.800000
319.575226	152.340000
319.668518	152.900000
319.761810	153.100000
319.855103	153.440000
319.948395	153.760000
320.041687	153.900000
320.134979	153.480000
320.228271	153.100000
320.321564	152.960000
320.414856	152.920000
320.508148	152.440000
320.601440	152.500000
320.694763	152.260000
320.788025	153.160000
320.881348	153.000000
320.974640	153.400000
321.067963	153.080000
321.161224	153.560000
321.254547	152.700000
321.347839	153.320000
321.441162	152.880000
321.534454	153.360000
321.627747	152.920000
321.721069	153.480000
321.814362	153.120000
321.907654	153.420000
322.000946	153.280000
322.094269	153.880000
322.187561	153.400000
322.280884	153.700000
322.374176	154.040000
322.467468	154.320000
322.560791	154.140000
322.654083	154.680000
322.747406	154.620000
322.840698	154.540000
322.934021	154.800000
323.027344	155.220000
323.120636	154.540000
323.213959	154.100000
323.307251	153.720000
323.400574	153.160000
323.493866	152.260000
323.587219	152.800000
323.680511	153.320000
323.773834	153.480000
323.867157	153.620000
323.960449	154.340000
324.053772	153.880000
324.147095	153.460000
324.240387	154.040000
324.333710	153.940000
324.427032	153.800000
324.520355	154.020000
324.613647	153.860000
324.706970	153.380000
324.800293	153.500000
324.893616	153.520000
324.986938	153.980000
325.080231	154.000000
325.173553	154.360000
325.266876	154.700000
325.360199	154.680000
325.453522	153.820000
325.546875	153.260000
325.640167	153.340000
325.733521	153.360000
325.826813	153.760000
325.920166	153.640000
326.013489	154.120000
326.106812	153.160000
326.200134	152.680000
326.293457	151.480000
326.386780	151.660000
326.480103	151.340000
326.573425	151.700000
326.666748	151.720000
326.760071	152.340000
326.853424	152.560000
326.946747	152.960000
327.040070	153.620000
327.133392	153.420000
327.226715	152.840000
327.320068	152.340000
327.413391	152.680000
327.506714	151.680000
327.600037	151.720000
327.693390	152.180000
327.786713	152.580000
327.880066	152.480000
327.973358	153.200000
328.066742	154.100000
328.160034	154.180000
328.253418	154.480000
328.346710	154.080000
328.440063	153.520000
328.533417	152.640000
328.626740	153.000000
328.720093	152.460000
328.813416	152.440000
328.906769	152.980000
329.000092	153.380000
329.093445	152.980000
329.186768	153.060000
329.280121	153.560000
329.373444	153.780000
329.466797	153.560000
329.560120	153.640000
329.653473	153.780000
329.746796	153.240000
329.840149	152.760000
329.933502	153.060000
330.026825	153.120000
330.120178	152.840000
330.213562	152.920000
330.306854	153.000000
330.400238	152.720000
330.493561	152.240000
330.586945	153.280000
330.680237	153.860000
330.773621	153.860000
330.866974	153.940000
330.960327	154.540000
331.053680	153.820000
331.147003	153.500000
331.240356	153.660000
331.333710	153.760000
331.427063	153.240000
331.520416	153.060000
331.613770	152.720000
331.707123	152.880000
331.800476	153.060000
331.893829	154.300000
331.987152	154.820000
332.080505	155.060000
332.173859	154.920000
332.267212	154.300000
332.360565	153.580000
332.453918	153.060000
332.547333	152.600000
332.640656	152.720000
332.734039	152.980000
332.827362	152.480000
332.920746	152.780000
333.014069	153.580000
333.107452	153.780000
333.200806	154.080000
333.294159	154.400000
333.387543	154.100000
333.480896	153.400000
333.574249	152.880000
333.667603	152.520000
333.760956	152.760000
333.854340	152.880000
333.947693	153.220000
334.041046	153.260000
334.134430	153.860000
334.227783	153.580000
334.321136	153.360000
334.414520	152.860000
334.507874	153.060000
334.601227	152.800000
334.694611	152.840000
334.787964	152.980000
334.881348	153.380000
334.974701	153.340000
335.068085	153.060000
335.161438	153.380000
335.254822	153.360000
335.348175	153.720000
335.441559	153.440000
335.534943	154.340000
335.628296	153.960000
335.721680	154.180000
335.815033	153.980000
335.908417	154.300000
336.001770	153.620000
336.095154	153.500000
336.188538	153.360000
336.281891	152.980000
336.375275	152.460000
336.468658	152.480000
336.562012	152.800000
336.655396	153.020000
336.748779	153.800000
336.842133	154.020000
336.935516	153.680000
337.028900	153.120000
337.122284	152.780000
337.215637	152.360000
337.309021	152.420000
337.402435	152.380000
337.495789	152.560000
337.589203	152.780000
337.682526	152.340000
337.775940	152.560000
337.869324	152.740000
337.962708	152.480000
338.056091	152.900000
338.149475	153.100000
338.242859	153.040000
338.336243	153.080000
338.429626	153.600000
338.523010	153.380000
338.616394	153.280000
338.709778	153.740000
338.803162	153.700000
338.896545	153.820000
338.989929	153.160000
339.083313	153.700000
339.176697	153.020000
339.270081	153.040000
339.363464	153.160000
339.456848	153.640000
339.550232	152.840000
339.643616	152.740000
339.737030	152.840000
339.830383	152.620000
339.923828	153.040000
340.017181	153.360000
340.110596	153.480000
340.203949	153.160000
340.297363	152.700000
340.390778	152.240000
340.484161	152.260000
340.577545	152.120000
340.670959	152.460000
340.764343	152.520000
340.857727	152.780000
340.951111	152.160000
341.044525	152.580000
341.137909	152.100000
341.231293	152.100000
341.324707	151.660000
341.418091	152.940000
341.511505	152.960000
341.604889	153.620000
341.698303	154.100000
341.791687	154.740000
341.885071	153.980000
341.978485	153.780000
342.071899	153.780000
342.165283	153.620000
342.258698	153.540000
342.352081	154.140000
342.445496	154.780000
342.538879	154.500000
342.632324	154.320000
342.725708	154.160000
342.819122	153.720000
342.912506	153.200000
343.005920	153.080000
343.099335	153.920000
343.192719	153.700000
343.286133	153.720000
343.379547	153.580000
343.472931	153.820000
343.566345	153.080000
343.659760	153.380000
343.753143	153.180000
343.846558	153.100000
343.939972	153.180000
344.033386	154.040000
344.126770	153.780000
344.220184	153.900000
344.313599	154.340000
344.407043	154.200000
344.500427	153.140000
344.593872	153.740000
344.687225	153.800000
344.780670	153.480000
344.874054	153.400000
344.967499	154.120000
345.060913	153.720000
345.154327	153.560000
345.247742	153.080000
345.341156	152.520000
345.434570	152.320000
345.527985	152.120000
345.621399	152.240000
345.714813	152.620000
345.808228	153.520000
345.901642	153.120000
345.995056	152.860000
346.088470	153.000000
346.181885	153.240000
346.275299	152.680000
346.368713	152.840000
346.462128	152.880000
346.555573	153.020000
346.648987	153.080000
346.742401	153.220000
346.835815	153.620000
346.929260	153.460000
347.022644	153.340000
347.116119	153.320000
347.209503	153.740000
347.302948	154.400000
347.396362	155.280000
347.489807	155.280000
347.583221	155.840000
347.676636	155.420000
347.770050	154.120000
347.863495	153.360000
347.956909	153.340000
348.050323	152.600000
348.143768	152.680000
348.237183	152.740000
348.330597	153.280000
348.424042	153.340000
348.517456	153.740000
348.610901	153.660000
348.704315	153.720000
348.797760	153.240000
348.891174	152.800000
348.984619	152.220000
349.078033	152.620000
349.171448	153.180000
349.264923	153.140000
349.358337	153.180000
349.451782	153.420000
349.545197	152.840000
349.638641	152.280000
349.732086	152.080000
349.825500	152.980000
349.918945	152.740000
350.012390	153.440000
350.105804	153.860000
350.199249	154.500000
350.292664	154.300000
350.386108	154.340000
350.479553	154.540000
350.572968	154.040000
350.666412	153.860000
350.759857	153.600000
350.853302	154.420000
350.946716	153.540000
351.040161	154.200000
351.133606	154.300000
351.227081	154.060000
351.320465	154.360000
351.413940	154.760000
351.507355	154.680000
351.600830	154.760000
351.694244	154.480000
351.787720	154.100000
351.881104	154.180000
351.974579	153.840000
352.067993	154.300000
352.161469	154.600000
352.254883	153.880000
352.348358	153.820000
352.441803	153.680000
352.535248	153.040000
352.628693	153.360000
352.722137	153.380000
352.815582	153.540000
352.909027	153.760000
353.002472	153.820000
353.095917	153.460000
353.189362	153.920000
353.282806	153.700000
353.376251	153.360000
353.469696	152.940000
353.563141	153.680000
353.656586	153.240000
353.750061	152.660000
353.843475	152.900000
353.936981	153.700000
354.030396	152.880000
354.123871	153.080000
354.217285	154.000000
354.310760	154.120000
354.404175	153.740000
354.497681	153.580000
354.591095	153.420000
354.684570	152.440000
354.777985	152.300000
354.871490	152.000000
354.964935	152.840000
355.058380	152.800000
355.151855	152.860000
355.245300	153.220000
355.338745	153.800000
355.432220	153.400000
355.525665	153.120000
355.619110	153.680000
355.712585	153.360000
355.806030	152.900000
355.899475	152.220000
355.992950	152.860000
356.086426	153.280000
356.179871	153.180000
356.273346	153.500000
356.366791	154.080000
356.460266	153.980000
356.553711	153.260000
356.647186	153.380000
356.740631	152.880000
356.834106	152.360000
356.927551	152.500000
357.021027	152.840000
357.114471	153.020000
357.207947	153.280000
357.301422	153.900000
357.394867	153.880000
357.488342	154.180000
357.581818	154.020000
357.675262	154.180000
357.768738	154.040000
357.862213	153.200000
357.955658	153.200000
358.049133	153.040000
358.142609	153.440000
358.236053	153.340000
358.329529	154.040000
358.423035	153.760000
358.516449	153.400000
358.609955	153.400000
358.703400	154.280000
358.796906	154.120000
358.890350	153.800000
358.983826	154.360000
359.077271	153.620000
359.170776	153.020000
359.264221	152.840000
359.357727	152.980000
359.451172	153.500000
359.544647	153.700000
359.638123	153.640000
359.731598	154.140000
359.825073	154.400000
359.918549	153.840000
360.012024	154.080000
360.105499	153.540000
360.198975	153.400000
360.292450	153.540000
360.385925	153.460000
360.479401	152.900000
360.572876	153.440000
360.666351	153.720000
360.759857	153.240000
360.853302	153.500000
360.946808	153.040000
361.040253	153.020000
361.133759	152.440000
361.227203	153.020000
361.320709	152.700000
361.414154	153.480000
361.507660	153.640000
361.601105	154.180000
361.694641	154.180000
361.788086	154.040000
361.881592	154.320000
361.975067	154.100000
362.068542	154.120000
362.162018	153.820000
362.255524	153.420000
362.348999	153.260000
362.442474	153.680000
362.535950	153.160000
362.629456	153.380000
362.722931	153.760000
362.816406	154.020000
362.909882	154.200000
363.003387	154.140000
363.096863	154.380000
363.190338	154.400000
363.283875	154.100000
363.377319	153.660000
363.470825	154.380000
363.564301	153.520000
363.657806	153.600000
363.751282	153.140000
363.844788	153.700000
363.938232	152.880000
364.031769	153.540000
364.125214	153.860000
364.218750	154.360000
364.312225	153.380000
364.405731	153.580000
364.499207	153.000000
364.592712	152.380000
364.686188	152.220000
364.779694	152.460000
364.873169	152.360000
364.966675	152.400000
365.060150	152.680000
365.153656	153.080000
365.247131	153.060000
365.340637	153.720000
365.434143	154.140000
365.527618	154.200000
365.621155	153.460000
365.714600	153.720000
365.808136	153.500000
365.901611	152.580000
365.995117	152.260000
366.088593	152.660000
366.182129	152.520000
366.275604	152.340000
366.369110	152.820000
366.462585	153.120000
366.556122	154.260000
366.649567	154.140000
366.743103	154.220000
366.836609	154.120000
366.930115	154.520000
367.023590	153.720000
367.117096	153.660000
367.210602	153.400000
367.304108	153.940000
367.397614	154.300000
367.491119	154.120000
367.584595	154.280000
367.678101	154.620000
367.771606	154.240000
367.865112	153.520000
367.958649	152.960000
368.052124	152.780000
368.145660	152.440000
368.239136	152.960000
368.332672	153.020000
368.426147	153.540000
368.519684	153.280000
368.613159	153.680000
368.706696	153.320000
368.800171	153.400000
368.893707	153.200000
368.987183	153.540000
369.080719	153.440000
369.174225	153.300000
369.267731	153.440000
369.361237	153.580000
369.454742	153.840000
369.548248	154.300000
369.641754	154.060000
369.735260	153.740000
369.828766	152.940000
369.922272	153.080000
370.015808	152.360000
370.109314	152.380000
370.202820	152.120000
370.296356	153.460000
370.389832	153.240000
370.483368	153.060000
370.576874	153.020000
370.670410	153.500000
370.763885	152.180000
370.857422	152.100000
370.950928	152.160000
371.044464	153.000000
371.137939	152.940000
371.231476	153.840000
371.324982	154.380000
371.418518	154.880000
371.512024	154.500000
371.605560	154.300000
371.699066	154.320000
371.792572	153.720000
371.886108	153.880000
371.979614	153.640000
372.073120	154.300000
372.166656	153.980000
372.260162	153.920000
372.353668	153.520000
372.447205	153.520000
372.540710	153.040000
372.634277	152.820000
372.727753	152.960000
372.821320	152.840000
372.914795	153.000000
373.008362	152.640000
373.101837	153.080000
373.195404	153.040000
373.288879	152.740000
373.382446	153.300000
373.475922	153.580000
373.569489	154.400000
373.662964	154.900000
373.756531	155.540000
373.850037	155.340000
373.943573	155.240000
374.037109	153.900000
374.130615	153.620000
374.224152	153.480000
374.317657	153.240000
374.411194	154.220000
374.504730	154.160000
374.598236	153.640000
374.691772	153.640000
374.785309	153.720000
374.878815	152.660000
374.972351	153.260000
375.065887	153.480000
375.159454	154.060000
375.252930	153.780000
375.346497	154.180000
375.440002	154.680000
375.533569	154.640000
375.627045	153.660000
375.720612	153.920000
375.814117	154.200000
375.907684	153.520000
376.001160	153.160000
376.094727	153.040000
376.188232	153.460000
376.281799	153.220000
376.375336	153.300000
376.468872	154.100000
376.562408	154.400000
376.655914	153.720000
376.749451	153.920000
376.842987	153.840000
376.936523	153.700000
377.030060	153.840000
377.123596	154.480000
377.217133	153.880000
377.310669	154.060000
377.404205	154.080000
377.497772	154.480000
377.591278	153.800000
377.684845	154.540000
377.778351	154.640000
377.871918	154.420000
377.965424	153.460000
378.058990	153.360000
378.152496	153.080000
378.246063	153.480000
378.339569	153.820000
378.433136	154.040000
378.526642	154.100000
378.620209	154.040000
378.713745	153.380000
378.807312	153.680000
378.900848	153.940000
378.994385	154.200000
379.087921	153.380000
379.181458	153.960000
379.274994	152.980000
379.368530	152.760000
379.462097	152.940000
379.555634	153.460000
379.649170	152.580000
379.742706	152.980000
379.836273	153.400000
379.929810	153.020000
380.023376	152.940000
380.116882	152.920000
380.210449	152.640000
380.303986	151.980000
380.397552	151.540000
380.491058	151.620000
380.584656	151.420000
380.678162	151.780000
380.771729	152.160000
380.865265	153.140000
380.958832	153.460000
381.052368	154.060000
381.145935	154.340000
381.239471	154.660000
381.333008	154.500000
381.426575	154.120000
381.520111	154.460000
381.613647	154.540000
381.707214	154.260000
381.800751	153.620000
381.894318	153.920000
381.987854	152.960000
382.081421	152.440000
382.174988	152.380000
382.268524	152.100000
382.362091	152.120000
382.455627	153.380000
382.549194	153.520000
382.642731	152.760000
382.736298	152.900000
382.829834	152.540000
382.923401	152.840000
383.016937	152.920000
383.110504	153.860000
383.204041	154.100000
383.297607	154.740000
383.391174	153.180000
383.484741	153.740000
383.578278	153.160000
383.671844	152.940000
383.765411	151.800000
383.858948	152.780000
383.952515	152.160000
384.046051	152.820000
384.139618	153.360000
384.233185	154.220000
384.326721	154.040000
384.420288	154.660000
384.513855	154.340000
384.607422	154.700000
384.700989	154.760000
384.794525	154.240000
384.888123	154.120000
384.981659	154.520000
385.075226	153.720000
385.168762	153.440000
385.262360	153.840000
385.355896	152.520000
385.449463	151.860000
385.542999	152.000000
385.636597	152.740000
385.730164	152.680000
385.823730	152.960000
385.917267	153.160000
386.010834	153.240000
386.104401	152.960000
386.197968	153.480000
386.291534	154.160000
386.385101	154.320000
386.478668	154.720000
386.572235	154.200000
386.665802	153.360000
386.759338	152.860000
386.852905	152.580000
386.946472	152.220000
387.040070	152.960000
387.133606	153.160000
387.227203	153.340000
387.320740	154.060000
387.414337	153.820000
387.507874	153.140000
387.601471	153.380000
387.695007	152.840000
387.788605	152.380000
387.882141	152.500000
387.975739	152.660000
388.069275	152.140000
388.162872	152.700000
388.256439	152.640000
388.350037	152.340000
388.443604	152.220000
388.537170	152.520000
388.630737	153.000000
388.724304	152.960000
388.817871	153.100000
388.911438	153.100000
389.005005	153.500000
389.098602	153.420000
389.192169	153.160000
389.285736	153.760000
389.379333	153.680000
389.472870	153.040000
389.566467	152.800000
389.660034	152.860000
389.753632	152.280000
389.847168	152.820000
389.940765	153.260000
390.034332	153.380000
390.127930	153.140000
390.221466	153.020000
390.315063	152.540000
390.408630	151.840000
390.502228	151.120000
390.595795	151.800000
390.689362	152.240000
390.782959	152.680000
390.876526	153.400000
390.970093	153.600000
391.063690	153.980000
391.157257	154.220000
391.250824	154.500000
391.344421	154.080000
391.437988	154.760000
391.531555	154.500000
391.625153	154.160000
391.718750	153.980000
391.812317	153.920000
391.905914	153.320000
391.999481	153.380000
392.093079	153.360000
392.186615	153.500000
392.280243	153.940000
392.373779	154.460000
392.467407	154.440000
392.560944	154.560000
392.654572	154.040000
392.748108	153.720000
392.841736	153.600000
392.935303	153.460000
393.028900	153.240000
393.122467	153.220000
393.216064	152.920000
393.309631	152.440000
393.403229	152.300000
393.496796	152.340000
393.590393	151.640000
393.683990	152.360000
393.777557	153.060000
393.871155	153.020000
393.964722	153.560000
394.058350	154.220000
394.151917	153.880000
394.245514	153.480000
394.339081	153.880000
394.432678	153.760000
394.526245	153.840000
394.619873	153.220000
394.713409	153.300000
394.807037	152.960000
394.900604	153.140000
394.994202	153.260000
395.087769	154.060000
395.181396	153.660000
395.274994	154.520000
395.368561	153.620000
395.462158	153.480000
395.555756	152.800000
395.649353	153.420000
395.742920	152.500000
395.836517	153.420000
395.930115	152.620000
396.023712	153.160000
396.117279	153.280000
396.210876	153.220000
396.304474	153.020000
396.398071	154.000000
396.491669	154.340000
396.585266	153.820000
396.678833	153.520000
396.772461	153.580000
396.866028	153.060000
396.959656	152.780000
397.053223	152.820000
397.146851	152.740000
397.240417	152.540000
397.334015	153.380000
397.427582	153.080000
397.521210	153.420000
397.614807	154.300000
397.708405	154.460000
397.802002	154.220000
397.895599	154.940000
397.989197	154.640000
398.082794	154.220000
398.176392	154.620000
398.269989	154.380000
398.363586	154.660000
398.457184	155.800000
398.550781	156.160000
398.644379	155.760000
398.737976	156.360000
398.831573	156.760000
398.925201	157.000000
399.018768	159.700000
399.112396	164.160000
399.205963	171.060000
399.299591	181.680000
399.393158	197.600000
399.486786	222.100000
399.580353	264.240000
399.673981	344.120000
399.767578	486.420000
399.861206	705.640000
399.954773	989.820000
400.048401	1281.660000
400.141998	1506.640000
400.235596	1601.300000
400.329193	1542.680000
400.422791	1343.760000
400.516418	1071.580000
400.610016	796.660000
400.703613	570.080000
400.797211	403.980000
400.890808	298.700000
400.984436	237.100000
401.078033	203.040000
401.171631	183.500000
401.265259	173.700000
401.358826	168.240000
401.452484	164.800000
401.546051	162.760000
401.639679	161.080000
401.733246	159.800000
401.826904	158.260000
401.920471	156.540000
402.014099	155.640000
402.107697	155.300000
402.201324	154.980000
402.294891	155.040000
402.388550	155.980000
402.482147	155.860000
402.575745	155.400000
402.669373	154.880000
402.762970	154.460000
402.856567	153.880000
402.950195	154.020000
403.043793	153.780000
403.137390	154.540000
403.231018	154.040000
403.324615	154.840000
403.418243	154.160000
403.511841	154.980000
403.605469	154.680000
403.699066	155.120000
403.792694	154.640000
403.886292	155.340000
403.979919	154.600000
404.073517	154.540000
404.167145	154.820000
404.260712	154.780000
404.354370	154.140000
404.447937	154.560000
404.541595	154.660000
404.635162	154.900000
404.728821	155.020000
404.822418	154.640000
404.916046	154.380000
405.009644	154.300000
405.103271	154.120000
405.196899	153.780000
405.290497	153.920000
405.384125	154.220000
405.477722	153.780000
405.571350	153.240000
405.664948	153.320000
405.758575	153.400000
405.852203	152.880000
405.945801	152.920000
406.039429	153.100000
406.133057	152.940000
406.226654	153.160000
406.320312	153.380000
406.413879	153.860000
406.507538	154.160000
406.601135	153.640000
406.694763	154.100000
406.788361	153.700000
406.882019	153.180000
406.975586	153.560000
407.069244	154.240000
407.162872	154.000000
407.256470	154.160000
407.350098	154.140000
407.443726	153.420000
407.537323	152.900000
407.630951	153.020000
407.724579	152.940000
407.818207	153.480000
407.911804	153.160000
408.005432	153.260000
408.099060	153.360000
408.192688	154.000000
408.286285	153.500000
408.379913	153.620000
408.473572	153.880000
408.567169	152.980000
408.660828	152.560000
408.754395	152.400000
408.848053	152.740000
408.941650	152.920000
409.035309	152.940000
409.128906	153.000000
409.222565	153.400000
409.316132	153.540000
409.409790	153.080000
409.503387	153.220000
409.597046	153.260000
409.690674	153.120000
409.784302	152.820000
409.877930	153.060000
409.971558	153.480000
410.065186	153.340000
410.158783	153.300000
410.252411	153.220000
410.346039	153.400000
410.439667	153.200000
410.533295	153.500000
410.626923	153.820000
410.720551	153.720000
410.814209	154.180000
410.907806	154.060000
411.001465	153.180000
411.095062	153.220000
411.188721	153.520000
411.282318	152.840000
411.375977	152.540000
411.469574	153.180000
411.563232	152.840000
411.656830	152.700000
411.750488	152.540000
411.844086	152.680000
411.937744	152.860000
412.031372	152.620000
412.125000	152.540000
412.218628	153.020000
412.312256	154.000000
412.405884	154.320000
412.499512	154.260000
412.593170	154.820000
412.686798	154.720000
412.780426	153.800000
412.874054	153.780000
412.967682	154.120000
413.061310	154.380000
413.154968	154.500000
413.248566	154.660000
413.342224	154.280000
413.435852	154.400000
413.529510	153.800000
413.623108	153.200000
413.716766	153.020000
413.810364	153.500000
413.904022	153.200000
413.997650	152.780000
414.091309	153.700000
414.184906	154.040000
414.278564	153.480000
414.372192	153.920000
414.465851	154.460000
414.559479	153.920000
414.653107	154.460000
414.746735	154.620000
414.840393	154.500000
414.934021	154.520000
415.027649	154.320000
415.121277	153.940000
415.214935	154.300000
415.308563	153.980000
415.402191	153.360000
415.495850	153.360000
415.589478	153.120000
415.683136	152.480000
415.776733	153.060000
415.870422	153.840000
415.964020	153.520000
416.057678	153.600000
416.151306	154.120000
416.244965	153.620000
416.338562	153.200000
416.432251	153.940000
416.525848	154.660000
416.619507	154.440000
416.713165	154.920000
416.806793	155.000000
416.900421	154.640000
416.994080	153.780000
417.087708	153.780000
417.181366	153.060000
417.274994	153.060000
417.368622	153.480000
417.462280	153.860000
417.555908	154.000000
417.649567	154.140000
417.743195	153.960000
417.836853	153.680000
417.930481	153.880000
418.024170	153.360000
418.117767	154.240000
418.211426	154.820000
418.305054	154.880000
418.398712	154.100000
418.492340	154.660000
418.585999	154.320000
418.679626	154.100000
418.773285	154.240000
418.866913	154.900000
418.960571	154.820000
419.054230	154.560000
419.147858	154.480000
419.241516	154.580000
419.335144	154.200000
419.428802	153.880000
419.522461	153.840000
419.616089	153.800000
419.709747	153.820000
419.803375	153.920000
419.897034	153.820000
419.990662	153.600000
420.084320	153.720000
420.177979	153.860000
420.271606	154.100000
420.365295	154.900000
420.458893	155.340000
420.552582	155.580000
420.646210	155.280000
420.739868	154.800000
420.833496	154.240000
420.927155	153.880000
421.020782	153.420000
421.114471	152.940000
421.208069	153.280000
421.301758	153.680000
421.395386	154.100000
421.489044	154.180000
421.582703	154.500000
421.676361	154.880000
421.769989	154.240000
421.863647	154.260000
421.957306	154.460000
422.050934	154.840000
422.144592	154.640000
422.238251	154.820000
422.331909	154.720000
422.425537	154.560000
422.519196	154.420000
422.612854	154.080000
422.706543	153.680000
422.800140	153.900000
422.893829	153.700000
422.987457	153.160000
423.081146	153.240000
423.174744	154.020000
423.268433	153.320000
423.362061	153.280000
423.455750	153.600000
423.549347	153.720000
423.643036	153.260000
423.736664	154.240000
423.830353	154.260000
423.924011	154.600000
424.017639	154.100000
424.111298	154.100000
424.204956	153.700000
424.298615	153.940000
424.392273	153.680000
424.485931	153.840000
424.579559	154.100000
424.673218	153.860000
424.766876	153.940000
424.860535	153.600000
424.954193	153.220000
425.047882	153.540000
425.141510	153.680000
425.235199	153.440000
425.328796	153.440000
425.422485	153.820000
425.516113	153.040000
425.609802	152.900000
425.703430	153.200000
425.797119	153.040000
425.890747	153.040000
425.984436	153.440000
426.078064	153.640000
426.171753	153.520000
426.265411	153.580000
426.359070	154.040000
426.452728	153.800000
426.546356	153.900000
426.640015	153.880000
426.733673	154.160000
426.827332	153.600000
426.920990	154.460000
427.014648	154.060000
427.108307	154.460000
427.201965	154.840000
427.295624	155.400000
427.389282	154.580000
427.482941	154.740000
427.576630	154.560000
427.670258	153.900000
427.763947	153.620000
427.857574	153.820000
427.951263	153.820000
428.044922	153.480000
428.138611	153.480000
428.232239	154.000000
428.325928	154.240000
428.419556	154.700000
428.513245	154.600000
428.606903	154.820000
428.700562	154.200000
428.794220	153.560000
428.887878	152.860000
428.981537	153.440000
429.075195	153.700000
429.168854	154.260000
429.262512	154.520000
429.356201	154.960000
429.449860	154.500000
429.543518	154.540000
429.637177	154.700000
429.730835	154.640000
429.824493	154.600000
429.918182	155.000000
430.011810	154.220000
430.105530	153.120000
430.199158	153.400000
430.292847	153.040000
430.386475	152.760000
430.480164	153.240000
430.573792	153.280000
430.667511	153.220000
430.761139	153.700000
430.854828	154.160000
430.948456	154.500000
431.042145	155.700000
431.135834	155.440000
431.229492	155.560000
431.323151	155.660000
431.416809	155.420000
431.510468	154.880000
431.604156	154.900000
431.697815	154.780000
431.791473	154.040000
431.885132	153.800000
431.978821	154.040000
432.072479	154.400000
432.166138	154.640000
432.259827	154.740000
432.353485	155.360000
432.447174	155.400000
432.540802	155.120000
432.634491	155.260000
432.728149	155.840000
432.821838	156.160000
432.915466	155.680000
433.009186	155.820000
433.102814	154.980000
433.196503	154.440000
433.290131	154.180000
433.383850	154.600000
433.477509	154.760000
433.571167	155.980000
433.664856	156.500000
433.758514	156.520000
433.852173	156.380000
433.945862	156.200000
434.039520	155.680000
434.133179	154.900000
434.226868	154.500000
434.320526	153.760000
434.414185	154.400000
434.507874	153.800000
434.601562	154.240000
434.695221	154.220000
434.788910	154.840000
434.882538	154.300000
434.976257	154.100000
435.069885	154.220000
435.163574	154.480000
435.257233	154.200000
435.350922	154.240000
435.444580	154.240000
435.538269	153.760000
435.631897	153.800000
435.725616	154.120000
435.819275	154.840000
435.912964	155.600000
436.006622	156.200000
436.100311	156.080000
436.193970	155.420000
436.287628	154.800000
436.381317	154.260000
436.474976	153.660000
436.568665	153.380000
436.662323	153.900000
436.756012	153.680000
436.849670	153.880000
436.943390	154.100000
437.037018	154.000000
437.130737	153.960000
437.224365	154.140000
437.318085	154.200000
437.411713	154.160000
437.505432	155.020000
437.599060	155.400000
437.692780	156.000000
437.786407	156.040000
437.880127	155.860000
437.973755	155.140000
438.067474	154.640000
438.161133	154.460000
438.254822	154.820000
438.348480	154.920000
438.442169	155.620000
438.535828	156.020000
438.629517	155.400000
438.723175	154.600000
438.816864	155.140000
438.910553	154.420000
439.004211	154.180000
439.097900	153.760000
439.191559	153.960000
439.285248	152.920000
439.378906	153.160000
439.472626	152.820000
439.566284	153.060000
439.659973	153.320000
439.753632	153.560000
439.847321	153.960000
439.940979	154.180000
440.034698	154.340000
440.128326	153.740000
440.222046	153.540000
440.315674	152.520000
440.409393	152.560000
440.503082	152.280000
440.596741	152.580000
440.690430	152.860000
440.784088	152.920000
440.877777	152.320000
440.971466	152.400000
441.065125	152.220000
441.158813	152.160000
441.252502	152.280000
441.346161	152.620000
441.439850	152.760000
441.533539	152.500000
441.627197	152.560000
441.720886	152.660000
441.814606	153.040000
441.908234	153.320000
442.001953	153.560000
442.095612	153.520000
442.189301	153.880000
442.282959	153.820000
442.376678	153.000000
442.470306	153.520000
442.564026	153.600000
442.657684	153.500000
442.751404	153.380000
442.845032	154.720000
442.938751	153.880000
443.032440	154.180000
443.126099	153.660000
443.219788	154.400000
443.313477	153.440000
443.407166	154.080000
443.500824	153.900000
443.594513	154.340000
443.688202	153.760000
443.781891	153.340000
443.875549	152.800000
443.969238	152.680000
444.062927	152.480000
444.156647	152.180000
444.250275	153.160000
444.343994	153.820000
444.437653	154.000000
444.531372	153.980000
444.625031	153.720000
444.718719	153.040000
444.812378	152.780000
444.906097	152.180000
444.999756	151.680000
445.093445	151.960000
445.187103	152.480000
445.280823	152.880000
445.374512	153.020000
445.468201	153.480000
445.561859	153.240000
445.655548	153.160000
445.749237	152.160000
445.842926	152.460000
445.936615	152.900000
446.030304	153.020000
446.123962	152.920000
446.217651	153.140000
446.311340	153.260000
446.405029	152.680000
446.498749	152.620000
446.592407	152.380000
446.686096	152.840000
446.779755	152.680000
446.873474	152.700000
446.967133	152.920000
447.060852	152.760000
447.154510	152.460000
447.248230	152.540000
447.341858	152.920000
447.435577	152.500000
447.529236	152.420000
447.622955	152.100000
447.716644	151.940000
447.810333	151.780000
447.904022	152.540000
447.997711	152.520000
448.091400	153.100000
448.185059	153.520000
448.278748	153.420000
448.372437	153.040000
448.466125	153.460000
448.559814	153.620000
448.653503	153.800000
448.747192	154.320000
448.840912	154.720000
448.934570	154.600000
449.028290	154.740000
449.121948	154.300000
449.215637	153.700000
449.309296	153.300000
449.403015	153.540000
449.496674	153.280000
449.590393	153.280000
449.684052	153.400000
449.777771	154.000000
449.871429	153.500000
449.965149	153.120000
450.058838	153.320000
450.152527	153.720000
450.246216	153.340000
450.339905	153.720000
450.433594	153.720000
450.527283	154.300000
450.620972	154.160000
450.714661	154.100000
450.808350	153.820000
450.902039	154.100000
450.995728	153.480000
451.089417	152.860000
451.183105	152.860000
451.276794	153.560000
451.370514	152.920000
451.464172	151.820000
451.557892	152.260000
451.651550	152.460000
451.745270	151.680000
451.838928	151.580000
451.932648	152.720000
452.026306	153.040000
452.120026	152.600000
452.213684	153.180000
452.307404	153.960000
452.401062	154.080000
452.494781	154.080000
452.588470	154.260000
452.682159	153.640000
452.775848	153.600000
452.869537	153.040000
452.963226	152.640000
453.056915	152.600000
453.150604	152.900000
453.244293	153.160000
453.337982	154.020000
453.431671	154.460000
453.525360	154.840000
453.619049	155.120000
453.712769	154.720000
453.806427	153.580000
453.900146	152.760000
453.993805	152.520000
454.087555	152.520000
454.181213	152.440000
454.274933	152.700000
454.368591	153.080000
454.462311	152.880000
454.555969	152.520000
454.649689	153.640000
454.743347	153.340000
454.837067	154.020000
454.930756	154.420000
455.024445	154.600000
455.118134	153.820000
455.211853	154.380000
455.305542	153.680000
455.399231	153.220000
455.492920	153.200000
455.586609	152.920000
455.680298	153.140000
455.773987	152.760000
455.867676	152.800000
455.961365	152.960000
456.055084	152.980000
456.148773	152.580000
456.242493	152.840000
456.336151	153.180000
456.429871	153.180000
456.523529	153.480000
456.617249	153.240000
456.710907	154.320000
456.804626	154.000000
456.898315	153.480000
456.992035	153.220000
457.085693	152.900000
457.179413	151.700000
457.273102	152.620000
457.366791	152.760000
457.460480	153.280000
457.554199	154.400000
457.647888	154.660000
457.741577	154.060000
457.835266	154.220000
457.928955	153.980000
458.022644	153.860000
458.116364	154.480000
458.210052	154.700000
458.303741	154.920000
458.397461	154.260000
458.491119	153.740000
458.584839	152.960000
458.678528	152.420000
458.772247	152.020000
458.865906	152.340000
458.959625	153.240000
459.053284	153.720000
459.147003	153.520000
459.240692	154.260000
459.334412	154.260000
459.428070	153.620000
459.521790	153.180000
459.615479	153.360000
459.709198	153.560000
459.802887	153.440000
459.896576	153.120000
459.990265	153.480000
460.083954	153.960000
460.177673	153.240000
460.271362	153.540000
460.365051	153.860000
460.458740	153.480000
460.552429	152.660000
460.646149	152.780000
460.739838	152.260000
460.833527	152.220000
460.927246	152.080000
461.020905	152.300000
461.114655	151.960000
461.208313	152.560000
461.302032	152.300000
461.395691	152.680000
461.489441	152.560000
461.583099	152.620000
461.676819	152.560000
461.770477	152.960000
461.864197	152.500000
461.957916	153.040000
462.051605	152.780000
462.145294	153.480000
462.238983	153.060000
462.332703	153.880000
462.426392	154.140000
462.520081	154.340000
462.613770	153.480000
462.707489	153.920000
462.801178	153.500000
462.894867	153.000000
462.988556	152.920000
463.082275	153.060000
463.175964	152.600000
463.269684	153.040000
463.363342	152.880000
463.457092	152.100000
463.550751	152.300000
463.644470	152.520000
463.738129	151.980000
463.831879	152.340000
463.925537	154.000000
464.019257	153.940000
464.112946	153.820000
464.206665	153.920000
464.300323	153.680000
464.394043	152.680000
464.487762	152.620000
464.581451	153.120000
464.675140	153.160000
464.768829	153.540000
464.862549	153.940000
464.956238	154.080000
465.049927	153.960000
465.143646	153.820000
465.237335	153.480000
465.331024	153.840000
465.424713	153.640000
465.518433	153.480000
465.612152	153.100000
465.705811	153.120000
465.799561	152.960000
465.893219	152.780000
465.986938	153.000000
466.080597	153.180000
466.174347	153.620000
466.268005	153.520000
466.361725	153.340000
466.455414	153.080000
466.549133	152.880000
466.642792	152.980000
466.736542	152.340000
466.830231	152.560000
466.923920	152.460000
467.017609	152.580000
467.111328	151.920000
467.205017	152.400000
467.298706	152.460000
467.392426	152.500000
467.486115	152.940000
467.579803	152.740000
467.673523	153.060000
467.767212	153.300000
467.860901	153.340000
467.954651	153.440000
468.048309	153.640000
468.142029	153.480000
468.235718	153.320000
468.329437	153.120000
468.423096	153.060000
468.516846	153.020000
468.610504	152.600000
468.704224	152.120000
468.797913	152.140000
468.891632	152.300000
468.985291	152.320000
469.079010	152.640000
469.172729	152.580000
469.266418	153.280000
469.360107	152.880000
469.453827	152.820000
469.547516	153.000000
469.641205	153.560000
469.734924	153.280000
469.828613	153.760000
469.922302	153.980000
470.016022	153.780000
470.109711	153.500000
470.203430	152.840000
470.297150	151.980000
470.390808	152.220000
470.484558	151.840000
470.578217	152.260000
470.671936	153.220000
470.765625	154.140000
470.859344	153.600000
470.953003	154.300000
471.046753	154.000000
471.140411	153.060000
471.234131	153.140000
471.327820	153.800000
471.421539	153.160000
471.515228	152.920000
471.608948	153.100000
471.702637	152.440000
471.796326	151.980000
471.890045	152.280000
471.983734	152.480000
472.077423	152.620000
472.171143	152.920000
472.264832	153.060000
472.358521	153.220000
472.452240	152.960000
472.545929	153.560000
472.639648	153.500000
472.733337	154.100000
472.827057	154.260000
472.920746	154.680000
473.014465	154.840000
473.108124	154.920000
473.201874	154.420000
473.295532	154.220000
473.389252	154.420000
473.482941	154.100000
473.576660	153.640000
473.670319	153.480000
473.764069	153.840000
473.857727	153.880000
473.951477	154.040000
474.045166	155.100000
474.138855	155.140000
474.232574	154.420000
474.326263	154.420000
474.419952	154.220000
474.513672	153.720000
474.607361	153.680000
474.701050	154.180000
474.794769	154.480000
474.888458	154.760000
474.982178	154.600000
475.075867	154.740000
475.169586	154.660000
475.263275	154.160000
475.356995	154.020000
475.450653	153.580000
475.544403	153.220000
475.638062	153.940000
475.731812	153.480000
475.825470	152.940000
475.919189	153.560000
476.012878	153.940000
476.106598	153.080000
476.200256	153.480000
476.294006	153.880000
476.387695	153.700000
476.481384	153.520000
476.575104	153.480000
476.668793	153.360000
476.762512	152.840000
476.856201	153.540000
476.949890	153.120000
477.043610	152.740000
477.137299	152.760000
477.230988	153.280000
477.324707	152.640000
477.418396	153.660000
477.512146	153.840000
477.605804	153.700000
477.699524	153.600000
477.793213	153.300000
477.886932	152.740000
477.980591	152.740000
478.074341	152.560000
478.167999	152.020000
478.261749	152.420000
478.355408	152.180000
478.449127	152.560000
478.542816	153.660000
478.636536	154.640000
478.730225	154.720000
478.823944	155.300000
478.917633	155.360000
479.011322	155.060000
479.105042	154.760000
479.198730	154.860000
479.292450	154.400000
479.386139	154.540000
479.479828	154.420000
479.573547	154.700000
479.667267	154.700000
479.760925	154.600000
479.854675	154.440000
479.948334	154.320000
480.042084	153.760000
480.135742	153.560000
480.229462	153.340000
480.323151	153.380000
480.416870	152.880000
480.510529	153.100000
480.604279	152.680000
480.697937	153.640000
480.791656	152.960000
480.885345	153.340000
480.979065	152.980000
481.072754	153.720000
481.166473	153.640000
481.260132	153.840000
481.353882	153.500000
481.447540	153.720000
481.541260	153.460000
481.635010	152.900000
481.728668	153.060000
481.822388	152.980000
481.916077	153.160000
482.009796	153.000000
482.103485	153.420000
482.197205	153.500000
482.290863	154.080000
482.384613	153.760000
482.478271	153.420000
482.571991	153.020000
482.665680	153.020000
482.759399	153.480000
482.853058	154.060000
482.946808	154.200000
483.040466	154.080000
483.134216	153.640000
483.227875	152.780000
483.321594	153.160000
483.415283	153.220000
483.509003	153.240000
483.602661	153.500000
483.696411	154.060000
483.790070	153.440000
483.883789	153.440000
483.977478	153.780000
484.071198	153.980000
484.164917	153.300000
484.258606	152.620000
484.352325	152.940000
484.445984	152.960000
484.539734	152.880000
484.633392	152.900000
484.727142	153.900000
484.820801	153.620000
484.914520	153.500000
485.008209	153.720000
485.101929	154.000000
485.195587	153.360000
485.289337	153.460000
485.382996	153.300000
485.476715	153.360000
485.570404	153.860000
485.664124	153.920000
485.757782	154.140000
485.851532	154.160000
485.945190	153.720000
486.038910	153.560000
486.132599	153.920000
486.226318	153.400000
486.319977	153.240000
486.413727	153.780000
486.507446	153.280000
486.601105	152.620000
486.694855	152.540000
486.788513	152.660000
486.882233	152.420000
486.975922	152.580000
487.069641	152.620000
487.163300	152.360000
487.257050	153.420000
487.350708	153.040000
487.444427	152.560000
487.538116	152.600000
487.631836	152.800000
487.725494	152.000000
487.819214	152.080000
487.912903	152.280000
488.006622	152.940000
488.100281	153.480000
488.194031	153.700000
488.287689	154.080000
488.381409	154.840000
488.475098	154.300000
488.568817	154.220000
488.662476	153.920000
488.756226	153.500000
488.849945	152.420000
488.943604	152.720000
489.037354	153.100000
489.131012	153.220000
489.224731	153.200000
489.318390	153.380000
489.412140	153.380000
489.505798	152.840000
489.599518	152.500000
489.693207	152.860000
489.786926	153.120000
489.880585	152.980000
489.974335	153.240000
490.067993	154.280000
490.161713	154.300000
490.255371	154.960000
490.349121	155.300000
490.442780	154.880000
490.536499	153.740000
490.630188	153.680000
490.723907	152.780000
490.817566	152.700000
490.911285	152.980000
491.004974	152.840000
491.098694	152.540000
491.192413	153.260000
491.286102	152.780000
491.379822	152.760000
491.473480	153.360000
491.567200	153.340000
491.660889	152.480000
491.754608	152.900000
491.848267	152.820000
491.941986	152.620000
492.035675	152.900000
492.129395	153.560000
492.223053	153.180000
492.316772	153.420000
492.410461	153.220000
492.504181	153.220000
492.597839	152.560000
492.691559	152.460000
492.785248	152.580000
492.878967	152.940000
492.972626	152.780000
493.066345	153.060000
493.160034	153.020000
493.253754	152.360000
493.347412	151.680000
493.441132	151.940000
493.534882	152.680000
493.628540	153.040000
493.722260	153.300000
493.815918	153.640000
493.909668	153.840000
494.003326	153.840000
494.097046	153.680000
494.190704	153.720000
494.284454	153.860000
494.378113	153.800000
494.471832	153.360000
494.565491	153.480000
494.659210	153.560000
494.752899	153.560000
494.846619	153.300000
494.940277	153.540000
495.033997	153.120000
495.127686	153.000000
495.221405	152.760000
495.315063	152.540000
495.408783	152.280000
495.502441	152.480000
495.596191	152.460000
495.689850	152.400000
495.783569	152.940000
495.877228	153.220000
495.970947	153.360000
496.064697	153.300000
496.158356	154.440000
496.252075	154.020000
496.345734	153.640000
496.439453	154.300000
496.533142	154.640000
496.626862	154.460000
496.720520	154.560000
496.814240	155.040000
496.907898	154.560000
497.001617	154.480000
497.095306	153.700000
497.189026	153.840000
497.282684	153.700000
497.376404	154.080000
497.470062	153.820000
497.563782	153.960000
497.657471	153.660000
497.751190	153.520000
497.844849	152.880000
497.938568	153.180000
498.032227	153.100000
498.125946	153.400000
498.219635	152.980000
498.313354	153.280000
498.407074	152.940000
498.500732	153.120000
498.594452	153.280000
498.688110	153.080000
498.781830	152.600000
498.875519	152.560000
498.969238	152.020000
499.062897	151.540000
499.156616	152.080000
499.250275	152.400000
499.343994	152.240000
499.437653	152.580000
499.531372	152.640000
499.625061	153.060000
499.718781	153.160000
499.812439	153.460000
499.906158	153.360000
499.999817	153.380000
500.093536	152.900000
500.187195	152.940000
500.280914	153.120000
500.374573	153.460000
500.468323	153.180000
500.561981	153.340000
500.655701	152.980000
500.749420	153.120000
500.843079	153.340000
500.936798	153.660000
501.030457	154.040000
501.124176	154.180000
501.217834	154.040000
501.311554	153.880000
501.405212	153.660000
501.498962	152.960000
501.592621	153.240000
501.686340	153.440000
501.779999	153.300000
501.873718	153.700000
501.967377	153.780000
502.061096	153.640000
502.154755	152.900000
502.248474	152.940000
502.342133	152.660000
502.435852	153.020000
502.529510	153.580000
502.623230	154.380000
502.716888	153.700000
502.810608	153.540000
502.904266	153.460000
502.997986	152.740000
503.091705	151.980000
503.185364	152.400000
503.279083	152.740000
503.372772	152.700000
503.466492	152.120000
503.560150	152.340000
503.653870	152.560000
503.747528	152.480000
503.841248	152.420000
503.934906	152.920000
504.028625	152.820000
504.122284	153.040000
504.216003	153.640000
504.309662	153.340000
504.403381	153.940000
504.497040	154.020000
504.590759	153.560000
504.684418	153.440000
504.778137	154.020000
504.871796	153.980000
504.965515	153.680000
505.059174	153.980000
505.152893	153.080000
505.246521	152.500000
505.340240	152.140000
505.433899	151.820000
505.527618	152.080000
505.621338	152.720000
505.714996	152.660000
505.808716	152.500000
505.902374	153.520000
505.996094	153.340000
506.089752	153.160000
506.183472	153.420000
506.277130	153.580000
506.370850	153.720000
506.464508	153.240000
506.558228	153.200000
506.651886	152.840000
506.745605	152.860000
506.839264	152.300000
506.932983	152.560000
507.026611	152.480000
507.120331	153.020000
507.213989	152.460000
507.307709	152.920000
507.401367	153.300000
507.495087	154.200000
507.588745	153.820000
507.682465	155.120000
507.776123	154.740000
507.869843	154.260000
507.963531	153.900000
508.057190	154.440000
508.150909	153.160000
508.244568	153.400000
508.338287	153.500000
508.431946	153.020000
508.525665	152.760000
508.619324	153.220000
508.713013	153.600000
508.806671	153.620000
508.900391	154.740000
508.994049	154.600000
509.087769	154.080000
509.181427	153.480000
509.275146	153.340000
509.368774	152.040000
509.462494	151.940000
509.556152	152.140000
509.649872	152.820000
509.743530	153.260000
509.837250	153.400000
509.930878	153.440000
510.024597	153.720000
510.118256	153.340000
510.211975	153.060000
510.305695	153.220000
510.399353	153.760000
510.493042	154.100000
510.586700	154.100000
510.680420	154.660000
510.774078	154.280000
510.867798	154.080000
510.961426	153.460000
511.055145	153.340000
511.148804	152.460000
511.242523	153.080000
511.336151	153.060000
511.429871	153.600000
511.523529	153.360000
511.617249	153.540000
511.710876	153.060000
511.804596	152.640000
511.898254	152.400000
511.991974	153.100000
512.085632	152.960000
512.179321	153.160000
512.272949	153.720000
512.366699	154.220000
512.460327	153.620000
512.554077	154.500000
512.647766	154.400000
512.741394	154.160000
512.835144	154.340000
512.928772	154.100000
513.022461	153.640000
513.116150	153.520000
513.209839	154.080000
513.303467	153.120000
513.397217	153.040000
513.490845	152.840000
513.584595	152.740000
513.678223	151.860000
513.771912	151.440000
513.865601	151.920000
513.959290	151.700000
514.052917	151.940000
514.146667	152.740000
514.240295	153.720000
514.333984	153.840000
514.427673	153.860000
514.521362	154.580000
514.614990	153.820000
514.708740	153.740000
514.802368	153.940000
514.896057	154.200000
514.989746	154.020000
515.083435	153.960000
515.177124	154.140000
515.270752	153.640000
515.364502	153.700000
515.458130	153.560000
515.551819	153.380000
515.645508	152.920000
515.739197	152.980000
515.832825	152.960000
515.926575	152.480000
516.020203	153.060000
516.113892	153.840000
516.207520	153.800000
516.301270	153.780000
516.394897	153.960000
516.488586	154.140000
516.582275	153.560000
516.675964	153.160000
516.769592	153.160000
516.863281	153.600000
516.956970	153.820000
517.050659	153.760000
517.144287	154.140000
517.238037	153.880000
517.331665	153.120000
517.425354	152.280000
517.519043	152.060000
517.612732	152.220000
517.706421	152.440000
517.800049	152.560000
517.893738	152.700000
517.987427	152.560000
518.081116	152.400000
518.174744	152.020000
518.268433	152.480000
518.362122	153.120000
518.455811	153.280000
518.549438	153.900000
518.643127	154.860000
518.736816	154.720000
518.830505	154.200000
518.924133	153.960000
519.017822	153.700000
519.111511	153.240000
519.205200	153.560000
519.298828	153.420000
519.392517	153.520000
519.486206	153.640000
519.579895	153.860000
519.673523	153.520000
519.767212	153.640000
519.860901	154.360000
519.954590	153.940000
520.048279	153.260000
520.141907	153.300000
520.235596	154.240000
520.329224	154.000000
520.422974	154.020000
520.516602	154.140000
520.610291	153.480000
520.703918	152.960000
520.797607	152.480000
520.891296	152.400000
520.984985	152.940000
521.078613	154.040000
521.172302	153.300000
521.265930	154.520000
521.359680	155.040000
521.453308	154.540000
521.546997	154.240000
521.640625	154.680000
521.734314	153.780000
521.827942	153.540000
521.921692	153.900000
522.015320	153.640000
522.109009	153.440000
522.202698	153.260000
522.296326	153.060000
522.390015	152.980000
522.483704	153.120000
522.577393	152.740000
522.671021	152.520000
522.764709	152.200000
522.858337	152.720000
522.952026	152.920000
523.045654	153.960000
523.139404	155.060000
523.233032	155.660000
523.326721	155.040000
523.420349	154.780000
523.514038	154.020000
523.607666	153.800000
523.701355	153.060000
523.795044	153.300000
523.888733	153.380000
523.982361	153.740000
524.076050	153.260000
524.169678	154.120000
524.263367	153.720000
524.356995	153.400000
524.450684	153.120000
524.544373	153.100000
524.638062	153.060000
524.731750	153.380000
524.825378	153.520000
524.919067	153.400000
525.012695	153.240000
525.106384	152.640000
525.200012	152.780000
525.293701	152.580000
525.387329	152.900000
525.481018	153.360000
525.574646	153.780000
525.668396	153.540000
525.762024	154.320000
525.855713	154.780000
525.949341	154.160000
526.043030	154.200000
526.136658	153.880000
526.230347	153.080000
526.323975	152.320000
526.417664	152.300000
526.511292	152.180000
526.604980	152.560000
526.698608	152.560000
526.792297	152.800000
526.885925	153.160000
526.979614	153.220000
527.073303	153.100000
527.166931	153.480000
527.260620	153.620000
527.354309	153.900000
527.447998	153.800000
527.541626	153.540000
527.635315	153.600000
527.728943	154.100000
527.822632	154.340000
527.916260	154.340000
528.009949	154.760000
528.103577	154.320000
528.197266	153.620000
528.290894	153.600000
528.384583	153.500000
528.478210	153.000000
528.571899	153.300000
528.665527	153.800000
528.759216	153.500000
528.852844	154.100000
528.946533	154.260000
529.040161	154.000000
529.133850	153.560000
529.227478	153.700000
529.321167	153.420000
529.414856	153.880000
529.508484	154.500000
529.602173	154.220000
529.695801	154.120000
529.789490	154.000000
529.883057	153.540000
529.976746	153.600000
530.070374	154.160000
530.164062	153.680000
530.257690	153.900000
530.351379	154.200000
530.445007	153.700000
530.538696	153.060000
530.632324	153.740000
530.726013	153.500000
530.819641	153.680000
530.913330	153.600000
531.006958	153.840000
531.100647	153.620000
531.194275	153.440000
531.287964	152.800000
531.381592	152.520000
531.475220	152.720000
531.568848	152.320000
531.662537	152.380000
531.756226	152.920000
531.849854	153.060000
531.943542	152.960000
532.037170	152.660000
532.130859	153.060000
532.224487	152.960000
532.318176	152.780000
532.411804	153.120000
532.505432	153.620000
532.599060	153.180000
532.692749	153.140000
532.786377	153.500000
532.880066	152.880000
532.973694	152.460000
533.067383	152.860000
533.161011	152.660000
533.254639	152.680000
533.348267	152.440000
533.441956	153.020000
533.535583	152.360000
533.629272	152.520000
533.722900	152.040000
533.816589	152.440000
533.910156	152.420000
534.003845	152.180000
534.097534	152.540000
534.191162	153.500000
534.284851	153.760000
534.378479	153.320000
534.472107	153.780000
534.565735	153.260000
534.659424	153.400000
534.753052	153.220000
534.846741	153.060000
534.940369	153.600000
535.033997	153.440000
535.127625	153.040000
535.221313	153.920000
535.314941	154.180000
535.408630	153.280000
535.502197	153.840000
535.595886	153.560000
535.689514	152.820000
535.783203	153.580000
535.876831	154.320000
535.970459	154.060000
536.064087	153.900000
536.157776	154.080000
536.251404	153.620000
536.345093	152.840000
536.438721	153.160000
536.532349	153.620000
536.626038	153.500000
536.719666	153.640000
536.813293	153.960000
536.906921	153.700000
537.000610	153.940000
537.094238	153.840000
537.187866	153.580000
537.281494	153.400000
537.375183	153.520000
537.468811	152.980000
537.562439	153.160000
537.656067	153.300000
537.749756	153.620000
537.843384	154.020000
537.937012	154.220000
538.030640	153.720000
538.124329	153.620000
538.217896	154.160000
538.311584	154.060000
538.405212	153.920000
538.498901	154.460000
538.592468	155.160000
538.686157	154.280000
538.779785	153.020000
538.873413	153.140000
538.967102	152.380000
539.060730	151.560000
539.154358	152.160000
539.247986	153.340000
539.341675	153.400000
539.435242	153.820000
539.528931	154.020000
539.622559	153.500000
539.716187	153.720000
539.809814	153.580000
539.903503	153.400000
539.997070	153.380000
540.090759	153.620000
540.184387	153.300000
540.278015	153.600000
540.371643	154.000000
540.465332	154.140000
540.558899	154.200000
540.652588	154.180000
540.746216	153.880000
540.839844	154.120000
540.933472	154.180000
541.027100	153.880000
541.120728	153.720000
541.214417	153.880000
541.308044	153.520000
541.401672	153.160000
541.495300	153.400000
541.588928	153.320000
541.682617	153.020000
541.776184	152.800000
541.869873	153.120000
541.963440	153.300000
542.057129	153.420000
542.150757	153.560000
542.244385	153.200000
542.338013	152.640000
542.431641	152.080000
542.525269	152.120000
542.618958	152.700000
542.712524	153.460000
542.806213	153.620000
542.899780	154.180000
542.993469	153.740000
543.087036	153.280000
543.180725	152.860000
543.274292	153.100000
543.367981	153.240000
543.461548	153.920000
543.555237	153.900000
543.648926	154.320000
543.742493	155.380000
543.836182	155.140000
543.929749	154.740000
544.023437	154.920000
544.117004	154.660000
544.210693	153.820000
544.304260	153.800000
544.397949	153.720000
544.491516	153.760000
544.585205	153.880000
544.678772	153.400000
544.772461	154.060000
544.866028	154.140000
544.959717	154.200000
545.053284	153.720000
545.146973	154.200000
545.240540	153.660000
545.334229	154.380000
545.427795	154.380000
545.521423	154.680000
545.615051	154.540000
545.708679	154.820000
545.802307	154.080000
545.895935	154.260000
545.989624	155.100000
546.083191	154.740000
546.176880	154.720000
546.270447	154.060000
546.364136	154.260000
546.457703	153.480000
546.551331	153.900000
546.644958	153.860000
546.738586	154.700000
546.832214	153.820000
546.925842	153.760000
547.019409	153.940000
547.113098	153.440000
547.206665	152.940000
547.300354	153.480000
547.393921	154.000000
547.487549	154.120000
547.581177	154.380000
547.674805	154.740000
547.768433	153.940000
547.862061	153.820000
547.955627	152.980000
548.049316	153.440000
548.142883	153.780000
548.236572	154.600000
548.330139	154.560000
548.423767	154.840000
548.517456	154.420000
548.611023	154.860000
548.704651	154.340000
548.798279	154.260000
548.891907	154.880000
548.985474	154.960000
549.079163	154.600000
549.172729	154.440000
549.266357	153.880000
549.359985	153.860000
549.453613	153.300000
549.547180	152.900000
549.640869	153.740000
549.734436	153.940000
549.828064	154.000000
549.921631	154.140000
550.015320	153.720000
550.108887	153.640000
550.202515	153.780000
550.296143	152.980000
550.389771	153.140000
550.483337	153.760000
550.576965	153.280000
550.670593	153.900000
550.764221	154.320000
550.857849	153.980000
550.951477	153.460000
551.045105	153.260000
551.138672	153.220000
551.232300	152.940000
551.325928	153.880000
551.419556	154.340000
551.513123	154.520000
551.606750	153.800000
551.700378	153.840000
551.794006	153.520000
551.887573	153.400000
551.981201	153.920000
552.074768	154.180000
552.168457	153.980000
552.262024	154.660000
552.355652	154.520000
552.449219	154.780000
552.542847	154.780000
552.636475	154.640000
552.730103	153.360000
552.823669	153.300000
552.917297	152.360000
553.010864	152.120000
553.104553	152.480000
553.198181	152.340000
553.291748	152.960000
553.385376	153.420000
553.478943	153.580000
553.572571	153.520000
553.666199	154.280000
553.759827	153.740000
553.853394	153.140000
553.947021	153.240000
554.040588	153.460000
554.134216	153.400000
554.227783	154.120000
554.321411	154.920000
554.415039	154.580000
554.508667	154.680000
554.602234	154.920000
554.695862	154.040000
554.789429	153.720000
554.883057	153.920000
554.976624	153.700000
555.070251	153.320000
555.163818	153.340000
555.257507	153.340000
555.351074	153.500000
555.444702	154.440000
555.538330	154.100000
555.631897	154.720000
555.725525	154.560000
555.819092	154.280000
555.912720	153.000000
556.006287	153.800000
556.099915	153.620000
556.193481	154.100000
556.287109	154.560000
556.380676	154.920000
556.474304	154.740000
556.567871	154.780000
556.661499	154.100000
556.755066	154.020000
556.848694	153.880000
556.942261	153.680000
557.035889	154.020000
557.129517	154.280000
557.223145	154.660000
557.316711	155.020000
557.410339	155.060000
557.503906	154.660000
557.597473	154.860000
557.691040	154.340000
557.784668	154.160000
557.878296	153.940000
557.971863	154.180000
558.065491	154.160000
558.159058	153.600000
558.252686	154.360000
558.346252	155.060000
558.439880	154.620000
558.533447	154.380000
558.627075	154.540000
558.720642	153.680000
558.814270	152.980000
558.907837	152.840000
559.001465	152.680000
559.095032	153.120000
559.188660	153.380000
559.282227	152.940000
559.375854	153.560000
559.469360	153.400000
559.562988	153.980000
559.656555	153.820000
559.750183	154.500000
559.843750	154.540000
559.937378	154.820000
560.030945	154.360000
560.124573	0.000000
560.218140	0.000000
560.311707	0.000000
560.405334	0.000000
560.498901	0.000000
560.592529	0.000000
560.686096	0.000000
560.779724	0.000000
560.873291	0.000000
560.966858	0.000000
561.060425	0.000000
561.154053	0.000000
561.247620	0.000000
561.341248	0.000000
561.434814	0.000000
561.528381	0.000000
561.621948	0.000000
561.715576	0.000000
561.809143	0.000000
561.902771	0.000000
561.996277	0.000000
562.089905	0.000000
562.183472	0.000000
562.277100	0.000000
