Model Number: SPM-002-B   
Serial Number: 70087108
Firmware Version: 004.15.4
Exposure Time: 100000.000000us
Data Taken on: 15-01-2021 16:34:22.753
Wavelength	Amplitude
221.570786	0.000000
221.663406	0.000000
221.756027	0.000000
221.848648	0.000000
221.941269	0.000000
222.033905	0.000000
222.126526	0.000000
222.219162	0.000000
222.311798	0.000000
222.404419	0.000000
222.497055	0.000000
222.589676	0.000000
222.682312	0.000000
222.774933	0.000000
222.867569	0.000000
222.960205	0.000000
223.052841	0.000000
223.145462	0.000000
223.238098	0.000000
223.330734	0.000000
223.423386	0.000000
223.516022	0.000000
223.608658	0.000000
223.701309	0.000000
223.793945	0.000000
223.886581	0.000000
223.979218	0.000000
224.071869	0.000000
224.164505	0.000000
224.257156	0.000000
224.349792	0.000000
224.442444	0.000000
224.535095	0.000000
224.627747	0.000000
224.720398	0.000000
224.813034	0.000000
224.905685	0.000000
224.998337	152.320000
225.090988	152.260000
225.183640	152.560000
225.276291	152.380000
225.368942	152.520000
225.461594	153.300000
225.554245	153.480000
225.646912	153.640000
225.739578	154.140000
225.832230	154.700000
225.924896	153.680000
226.017548	153.860000
226.110199	154.160000
226.202866	153.680000
226.295532	153.480000
226.388184	153.540000
226.480850	153.040000
226.573517	152.080000
226.666168	151.960000
226.758835	152.360000
226.851501	153.100000
226.944183	153.340000
227.036850	153.480000
227.129517	153.480000
227.222183	153.420000
227.314850	153.020000
227.407516	153.320000
227.500198	154.160000
227.592865	154.000000
227.685532	153.500000
227.778214	153.560000
227.870880	153.860000
227.963562	154.080000
228.056229	154.780000
228.148926	154.980000
228.241592	155.520000
228.334274	154.880000
228.426956	154.280000
228.519638	154.300000
228.612305	153.700000
228.704987	153.520000
228.797668	153.860000
228.890350	153.660000
228.983032	152.700000
229.075714	153.660000
229.168396	153.140000
229.261108	152.540000
229.353790	152.720000
229.446472	153.340000
229.539169	153.060000
229.631851	152.860000
229.724533	153.460000
229.817230	153.620000
229.909912	154.500000
230.002609	154.260000
230.095306	154.600000
230.187988	154.460000
230.280685	153.920000
230.373383	152.860000
230.466095	152.720000
230.558792	152.900000
230.651474	152.680000
230.744171	152.900000
230.836868	152.740000
230.929581	153.140000
231.022278	153.020000
231.114975	153.140000
231.207672	153.040000
231.300369	153.620000
231.393082	153.360000
231.485779	153.180000
231.578506	153.200000
231.671204	153.600000
231.763916	153.320000
231.856613	153.300000
231.949326	153.380000
232.042023	153.340000
232.134735	153.080000
232.227448	153.020000
232.320160	153.720000
232.412872	153.600000
232.505585	153.980000
232.598297	154.200000
232.691010	153.820000
232.783722	152.820000
232.876450	153.840000
232.969162	153.060000
233.061874	152.340000
233.154587	152.000000
233.247314	152.560000
233.340027	151.680000
233.432739	152.580000
233.525467	152.920000
233.618179	153.620000
233.710907	153.240000
233.803635	153.400000
233.896347	153.240000
233.989090	153.820000
234.081818	153.680000
234.174545	154.080000
234.267258	153.820000
234.359985	153.640000
234.452713	153.480000
234.545441	153.440000
234.638168	153.200000
234.730896	153.260000
234.823639	153.020000
234.916367	153.140000
235.009094	153.380000
235.101822	153.420000
235.194580	153.540000
235.287308	153.800000
235.380051	153.420000
235.472778	153.780000
235.565521	153.940000
235.658249	153.900000
235.750992	154.000000
235.843719	153.860000
235.936462	153.740000
236.029205	153.340000
236.121948	152.820000
236.214691	153.220000
236.307449	154.080000
236.400192	153.680000
236.492935	153.740000
236.585678	154.200000
236.678421	153.600000
236.771164	153.200000
236.863907	153.580000
236.956665	153.740000
237.049408	155.600000
237.142151	155.300000
237.234909	155.960000
237.327652	156.040000
237.420410	155.960000
237.513153	154.580000
237.605927	154.640000
237.698669	153.820000
237.791428	153.140000
237.884186	153.660000
237.976944	153.140000
238.069702	153.500000
238.162445	153.160000
238.255203	153.560000
238.347961	153.620000
238.440720	153.500000
238.533478	153.200000
238.626266	153.080000
238.719025	153.080000
238.811783	152.580000
238.904541	152.880000
238.997314	153.040000
239.090073	153.140000
239.182831	153.540000
239.275604	154.720000
239.368362	154.220000
239.461136	154.240000
239.553909	154.460000
239.646667	153.900000
239.739441	152.880000
239.832214	153.380000
239.925003	153.400000
240.017761	153.860000
240.110535	154.520000
240.203308	154.280000
240.296082	154.420000
240.388855	154.240000
240.481628	154.000000
240.574417	154.080000
240.667191	154.540000
240.759964	153.860000
240.852737	153.940000
240.945526	153.640000
241.038315	153.060000
241.131088	152.840000
241.223877	153.460000
241.316650	153.140000
241.409439	153.680000
241.502228	153.460000
241.595001	154.020000
241.687790	153.500000
241.780579	154.220000
241.873367	154.260000
241.966141	154.740000
242.058929	154.020000
242.151718	154.680000
242.244507	154.780000
242.337311	153.820000
242.430099	154.340000
242.522903	154.720000
242.615692	154.140000
242.708481	153.880000
242.801270	154.740000
242.894073	154.160000
242.986862	154.160000
243.079651	154.900000
243.172455	154.360000
243.265244	154.060000
243.358063	153.500000
243.450867	153.600000
243.543655	153.340000
243.636459	153.340000
243.729263	153.920000
243.822067	154.160000
243.914856	154.360000
244.007660	154.480000
244.100464	154.760000
244.193268	153.940000
244.286072	154.120000
244.378876	153.420000
244.471680	153.220000
244.564499	153.300000
244.657318	154.240000
244.750122	154.240000
244.842926	153.860000
244.935745	153.900000
245.028549	153.640000
245.121368	152.940000
245.214172	153.140000
245.306992	154.100000
245.399796	154.060000
245.492615	154.220000
245.585434	154.120000
245.678253	154.000000
245.771072	153.580000
245.863892	153.780000
245.956711	154.000000
246.049530	153.940000
246.142349	153.700000
246.235168	153.800000
246.327988	154.200000
246.420807	153.960000
246.513626	154.240000
246.606445	153.920000
246.699280	153.620000
246.792099	153.260000
246.884918	152.860000
246.977753	152.420000
247.070587	152.880000
247.163422	152.860000
247.256241	152.620000
247.349075	153.220000
247.441895	153.620000
247.534729	153.420000
247.627563	153.520000
247.720383	154.180000
247.813217	154.060000
247.906052	153.960000
247.998886	154.340000
248.091736	154.160000
248.184570	153.420000
248.277405	153.120000
248.370239	153.820000
248.463074	154.480000
248.555908	154.840000
248.648743	154.960000
248.741592	155.400000
248.834427	154.600000
248.927261	153.480000
249.020111	154.060000
249.112946	154.780000
249.205795	154.340000
249.298630	154.580000
249.391495	154.820000
249.484344	153.940000
249.577179	153.560000
249.670029	154.020000
249.762878	154.260000
249.855728	154.340000
249.948563	154.520000
250.041412	153.940000
250.134262	154.020000
250.227112	154.080000
250.319962	154.040000
250.412827	154.120000
250.505692	153.560000
250.598541	153.460000
250.691391	153.120000
250.784241	153.220000
250.877106	153.300000
250.969955	153.640000
251.062805	153.840000
251.155670	154.380000
251.248520	154.080000
251.341385	154.320000
251.434235	154.240000
251.527100	154.120000
251.619965	153.560000
251.712814	154.200000
251.805695	154.160000
251.898560	154.780000
251.991425	154.920000
252.084290	155.000000
252.177155	154.320000
252.270020	153.820000
252.362885	153.680000
252.455750	153.640000
252.548615	153.700000
252.641479	153.780000
252.734360	153.880000
252.827240	153.720000
252.920105	153.720000
253.012970	153.320000
253.105850	153.000000
253.198715	152.860000
253.291595	152.820000
253.384460	152.340000
253.477341	152.520000
253.570221	152.940000
253.663086	152.620000
253.755966	153.220000
253.848846	153.420000
253.941727	153.560000
254.034592	153.440000
254.127472	153.120000
254.220367	152.900000
254.313248	153.060000
254.406128	152.660000
254.499008	152.900000
254.591904	154.060000
254.684784	154.320000
254.777664	154.000000
254.870544	153.900000
254.963440	153.720000
255.056335	153.600000
255.149216	153.380000
255.242111	153.940000
255.334991	154.160000
255.427887	154.340000
255.520767	154.320000
255.613663	154.240000
255.706558	153.740000
255.799438	153.520000
255.892334	153.140000
255.985229	153.060000
256.078125	152.820000
256.171021	152.940000
256.263916	153.600000
256.356812	154.040000
256.449707	154.180000
256.542603	154.040000
256.635498	154.540000
256.728394	154.260000
256.821289	153.800000
256.914215	153.780000
257.007080	154.300000
257.100006	154.300000
257.192932	154.600000
257.285828	154.940000
257.378723	154.840000
257.471619	154.380000
257.564545	153.560000
257.657440	153.620000
257.750336	153.940000
257.843262	153.760000
257.936157	155.040000
258.029053	155.800000
258.121979	156.020000
258.214874	155.720000
258.307800	155.580000
258.400696	154.200000
258.493622	153.760000
258.586517	152.640000
258.679443	153.000000
258.772339	152.560000
258.865265	152.900000
258.958160	152.420000
259.051086	153.580000
259.144012	153.340000
259.236938	154.500000
259.329834	154.460000
259.422791	154.420000
259.515717	153.520000
259.608612	153.140000
259.701538	152.980000
259.794464	152.560000
259.887390	152.840000
259.980316	153.000000
260.073212	152.840000
260.166138	151.740000
260.259064	152.320000
260.351990	152.800000
260.444916	153.000000
260.537842	153.500000
260.630768	154.440000
260.723694	154.380000
260.816620	154.520000
260.909546	154.140000
261.002472	153.840000
261.095398	153.520000
261.188354	153.320000
261.281281	152.600000
261.374207	152.980000
261.467133	153.640000
261.560089	153.820000
261.653015	153.660000
261.745972	154.600000
261.838867	155.260000
261.931824	155.160000
262.024780	154.680000
262.117706	155.020000
262.210663	154.480000
262.303589	153.940000
262.396515	153.980000
262.489471	154.760000
262.582397	154.600000
262.675354	154.420000
262.768280	154.280000
262.861237	153.800000
262.954163	153.500000
263.047119	153.620000
263.140045	153.300000
263.233002	153.200000
263.325958	153.320000
263.418884	152.700000
263.511841	152.440000
263.604797	152.440000
263.697723	152.260000
263.790680	152.180000
263.883636	153.040000
263.976593	152.980000
264.069550	153.440000
264.162476	153.220000
264.255463	153.240000
264.348419	153.060000
264.441376	153.580000
264.534332	153.020000
264.627289	153.120000
264.720245	153.680000
264.813202	152.980000
264.906158	152.900000
264.999115	153.580000
265.092072	153.960000
265.185028	154.520000
265.277985	155.120000
265.370941	155.180000
265.463898	154.900000
265.556854	154.420000
265.649811	153.220000
265.742798	153.020000
265.835754	152.820000
265.928711	153.300000
266.021667	153.840000
266.114655	154.300000
266.207611	154.640000
266.300568	154.260000
266.393585	153.660000
266.486511	153.660000
266.579498	152.700000
266.672485	152.320000
266.765442	152.500000
266.858429	153.120000
266.951385	152.560000
267.044342	152.800000
267.137329	153.000000
267.230316	153.140000
267.323273	152.680000
267.416260	153.380000
267.509216	153.500000
267.602203	153.280000
267.695160	153.820000
267.788147	153.780000
267.881134	153.200000
267.974091	153.560000
268.067078	153.700000
268.160065	153.020000
268.253052	153.300000
268.346008	153.600000
268.438995	153.280000
268.531982	153.240000
268.624969	153.060000
268.717987	153.140000
268.810944	153.300000
268.903961	153.500000
268.996948	153.460000
269.089905	154.540000
269.182892	154.380000
269.275879	154.760000
269.368866	154.380000
269.461853	154.440000
269.554871	153.560000
269.647858	153.540000
269.740845	153.520000
269.833832	154.220000
269.926819	154.180000
270.019806	154.360000
270.112793	153.900000
270.205811	153.720000
270.298798	153.120000
270.391785	153.520000
270.484772	153.500000
270.577789	153.820000
270.670776	153.160000
270.763763	153.100000
270.856750	152.740000
270.949768	152.280000
271.042786	152.440000
271.135773	152.620000
271.228790	153.060000
271.321808	152.940000
271.414795	152.960000
271.507782	152.380000
271.600800	152.120000
271.693817	152.340000
271.786804	152.640000
271.879822	153.080000
271.972809	153.200000
272.065826	154.260000
272.158844	153.560000
272.251831	154.200000
272.344849	154.020000
272.437866	154.000000
272.530853	153.460000
272.623871	153.620000
272.716888	152.440000
272.809906	152.940000
272.902893	153.120000
272.995911	152.740000
273.088928	152.720000
273.181946	153.200000
273.274963	152.660000
273.367981	152.560000
273.460999	152.880000
273.554047	153.600000
273.647003	154.140000
273.740051	154.120000
273.833069	154.780000
273.926086	154.680000
274.019135	154.060000
274.112152	153.420000
274.205170	153.740000
274.298187	153.580000
274.391205	153.220000
274.484222	153.320000
274.577240	153.300000
274.670258	152.920000
274.763306	152.900000
274.856323	153.700000
274.949341	153.680000
275.042358	153.960000
275.135406	153.920000
275.228424	153.800000
275.321442	153.520000
275.414490	153.260000
275.507507	153.840000
275.600525	154.360000
275.693573	153.880000
275.786591	153.620000
275.879669	154.000000
275.972656	153.280000
276.065735	153.100000
276.158752	153.560000
276.251801	154.100000
276.344818	154.260000
276.437866	154.360000
276.530884	153.720000
276.623932	153.280000
276.716980	153.180000
276.809998	152.960000
276.903046	153.040000
276.996094	154.420000
277.089111	155.180000
277.182159	155.800000
277.275208	155.460000
277.368256	155.240000
277.461304	154.640000
277.554321	153.780000
277.647369	153.260000
277.740417	153.600000
277.833466	153.380000
277.926514	153.120000
278.019562	154.080000
278.112610	153.440000
278.205688	153.700000
278.298706	154.200000
278.391785	153.780000
278.484833	153.320000
278.577881	153.440000
278.670929	153.360000
278.763977	153.280000
278.857025	153.920000
278.950073	153.760000
279.043121	153.800000
279.136169	153.800000
279.229248	153.340000
279.322296	153.400000
279.415344	153.380000
279.508392	153.420000
279.601440	153.180000
279.694519	153.400000
279.787567	153.120000
279.880615	153.040000
279.973694	153.080000
280.066742	153.360000
280.159790	153.380000
280.252869	153.160000
280.345917	153.340000
280.438995	153.080000
280.532074	152.960000
280.625122	153.260000
280.718201	154.300000
280.811279	154.460000
280.904327	154.640000
280.997406	154.740000
281.090454	154.640000
281.183533	153.680000
281.276581	153.360000
281.369659	152.960000
281.462738	152.840000
281.555786	152.860000
281.648865	153.260000
281.741943	153.420000
281.835022	154.260000
281.928070	154.040000
282.021149	153.720000
282.114227	153.280000
282.207306	153.180000
282.300385	153.260000
282.393433	153.500000
282.486511	153.720000
282.579590	154.420000
282.672668	154.740000
282.765747	154.100000
282.858856	153.640000
282.951904	153.920000
283.045013	153.960000
283.138062	154.020000
283.231171	154.500000
283.324249	155.000000
283.417328	154.920000
283.510406	154.320000
283.603485	154.020000
283.696564	153.880000
283.789642	153.640000
283.882751	153.300000
283.975830	154.220000
284.068909	153.820000
284.161987	154.140000
284.255066	153.920000
284.348175	154.100000
284.441254	153.540000
284.534332	154.180000
284.627441	153.720000
284.720520	153.460000
284.813599	153.460000
284.906708	153.260000
284.999786	152.640000
285.092896	152.280000
285.185974	153.440000
285.279053	153.000000
285.372192	153.080000
285.465240	153.720000
285.558380	153.800000
285.651459	153.280000
285.744568	154.140000
285.837677	154.080000
285.930756	153.880000
286.023865	154.160000
286.116943	153.420000
286.210052	153.200000
286.303162	152.860000
286.396240	152.940000
286.489349	152.680000
286.582458	153.560000
286.675568	153.380000
286.768646	153.860000
286.861755	153.940000
286.954865	154.640000
287.047974	153.960000
287.141083	153.500000
287.234161	153.020000
287.327271	152.720000
287.420380	153.140000
287.513519	153.180000
287.606598	153.640000
287.699738	153.880000
287.792816	154.100000
287.885956	153.420000
287.979034	153.220000
288.072174	153.200000
288.165283	153.360000
288.258392	153.520000
288.351501	152.840000
288.444611	153.460000
288.537720	153.780000
288.630859	153.840000
288.723969	154.020000
288.817078	154.880000
288.910187	155.020000
289.003296	154.060000
289.096436	153.680000
289.189545	153.260000
289.282654	152.760000
289.375763	152.860000
289.468903	153.800000
289.562012	154.020000
289.655121	153.940000
289.748260	154.260000
289.841400	154.580000
289.934509	154.420000
290.027649	154.920000
290.120728	154.900000
290.213898	154.680000
290.306976	154.180000
290.400146	154.060000
290.493256	152.940000
290.586395	153.040000
290.679535	153.400000
290.772644	153.240000
290.865784	152.660000
290.958893	153.200000
291.052032	152.900000
291.145172	152.820000
291.238281	152.340000
291.331421	152.500000
291.424561	153.020000
291.517670	153.200000
291.610809	152.940000
291.703949	153.240000
291.797089	153.560000
291.890228	152.720000
291.983337	152.580000
292.076477	152.620000
292.169617	153.180000
292.262756	153.120000
292.355927	153.200000
292.449036	153.220000
292.542206	153.160000
292.635315	153.000000
292.728485	153.180000
292.821625	153.220000
292.914764	154.560000
293.007904	154.680000
293.101044	154.700000
293.194183	154.660000
293.287323	154.460000
293.380463	153.400000
293.473602	153.340000
293.566742	153.360000
293.659882	153.700000
293.753021	154.180000
293.846191	154.180000
293.939331	154.000000
294.032471	153.840000
294.125610	153.260000
294.218781	153.380000
294.311920	153.540000
294.405060	153.700000
294.498230	153.580000
294.591370	153.640000
294.684540	153.020000
294.777679	152.620000
294.870850	152.720000
294.963959	152.500000
295.057159	152.580000
295.150299	153.200000
295.243469	153.260000
295.336609	152.880000
295.429779	153.100000
295.522919	153.420000
295.616089	153.180000
295.709229	153.960000
295.802399	154.280000
295.895569	154.080000
295.988708	153.820000
296.081879	154.160000
296.175018	153.300000
296.268188	153.060000
296.361359	153.500000
296.454529	153.560000
296.547668	152.920000
296.640839	153.200000
296.734009	153.140000
296.827179	153.240000
296.920319	153.700000
297.013519	154.060000
297.106659	154.160000
297.199860	154.120000
297.292999	153.920000
297.386200	153.260000
297.479309	152.980000
297.572510	152.900000
297.665680	152.700000
297.758850	152.440000
297.852020	152.440000
297.945190	152.360000
298.038361	151.820000
298.131531	153.060000
298.224701	153.220000
298.317871	152.840000
298.411072	152.420000
298.504242	152.500000
298.597412	151.700000
298.690582	151.940000
298.783752	152.200000
298.876923	153.160000
298.970093	153.640000
299.063293	154.100000
299.156464	154.200000
299.249634	154.660000
299.342834	154.640000
299.436005	154.680000
299.529205	154.300000
299.622345	154.420000
299.715576	153.680000
299.808716	153.300000
299.901917	153.060000
299.995117	153.460000
300.088287	153.380000
300.181488	153.560000
300.274658	153.400000
300.367828	153.660000
300.461029	153.360000
300.554199	153.440000
300.647400	153.580000
300.740601	154.300000
300.833771	153.820000
300.926971	154.360000
301.020142	154.060000
301.113342	153.960000
301.206512	153.820000
301.299713	154.360000
301.392914	153.660000
301.486084	153.840000
301.579285	153.860000
301.672516	153.860000
301.765686	153.600000
301.858887	153.540000
301.952057	153.260000
302.045288	153.540000
302.138458	153.300000
302.231659	153.160000
302.324860	153.380000
302.418060	153.460000
302.511261	152.980000
302.604462	153.160000
302.697662	152.820000
302.790863	152.540000
302.884064	152.080000
302.977264	152.220000
303.070465	152.460000
303.163666	153.660000
303.256866	153.920000
303.350067	153.960000
303.443268	154.240000
303.536469	153.980000
303.629669	153.160000
303.722870	153.340000
303.816071	153.420000
303.909271	153.320000
304.002472	152.880000
304.095673	152.500000
304.188934	151.720000
304.282104	152.820000
304.375336	152.900000
304.468506	152.960000
304.561768	153.200000
304.654968	153.760000
304.748169	152.860000
304.841370	152.540000
304.934601	153.160000
305.027802	152.720000
305.121002	152.580000
305.214233	152.860000
305.307434	153.060000
305.400665	153.440000
305.493866	153.480000
305.587097	153.760000
305.680298	153.340000
305.773499	153.840000
305.866730	153.540000
305.959930	154.140000
306.053162	154.180000
306.146393	154.260000
306.239594	153.340000
306.332825	153.220000
306.426025	153.740000
306.519287	153.320000
306.612488	153.540000
306.705719	153.740000
306.798920	153.760000
306.892181	152.660000
306.985352	152.600000
307.078613	152.000000
307.171844	152.520000
307.265045	151.840000
307.358276	151.940000
307.451508	152.320000
307.544739	153.220000
307.637970	152.580000
307.731201	152.880000
307.824402	153.860000
307.917633	154.200000
308.010864	154.300000
308.104095	155.120000
308.197327	155.440000
308.290558	155.180000
308.383789	154.700000
308.477020	154.400000
308.570251	153.600000
308.663483	152.840000
308.756714	152.720000
308.849976	152.660000
308.943176	152.820000
309.036438	152.460000
309.129639	152.700000
309.222900	152.800000
309.316101	152.800000
309.409393	152.100000
309.502625	152.380000
309.595856	152.260000
309.689087	152.120000
309.782318	152.240000
309.875580	152.700000
309.968811	152.900000
310.062042	152.760000
310.155273	152.620000
310.248535	152.820000
310.341766	152.640000
310.434998	152.440000
310.528259	152.640000
310.621490	152.860000
310.714722	152.300000
310.807983	152.320000
310.901215	152.420000
310.994476	152.640000
311.087708	152.360000
311.181000	152.520000
311.274200	152.320000
311.367462	152.440000
311.460693	152.260000
311.553986	153.320000
311.647186	153.580000
311.740479	154.180000
311.833710	153.760000
311.926971	153.740000
312.020203	152.500000
312.113464	152.400000
312.206726	152.000000
312.299957	152.620000
312.393219	153.320000
312.486481	153.520000
312.579712	153.360000
312.672974	153.360000
312.766235	153.160000
312.859497	152.440000
312.952759	152.520000
313.045990	153.300000
313.139252	152.520000
313.232513	152.700000
313.325775	152.820000
313.419037	152.480000
313.512299	151.700000
313.605530	152.660000
313.698822	152.820000
313.792053	153.140000
313.885345	152.900000
313.978577	153.060000
314.071869	152.480000
314.165131	152.620000
314.258392	152.780000
314.351654	153.300000
314.444916	152.720000
314.538177	153.480000
314.631439	153.700000
314.724701	153.460000
314.817993	153.020000
314.911255	153.580000
315.004517	152.900000
315.097778	152.320000
315.191040	152.760000
315.284302	153.160000
315.377594	152.840000
315.470856	152.860000
315.564117	152.720000
315.657379	151.760000
315.750671	151.840000
315.843933	152.340000
315.937195	152.160000
316.030518	152.020000
316.123749	152.480000
316.217041	152.980000
316.310303	152.680000
316.403595	153.040000
316.496857	153.420000
316.590149	153.720000
316.683411	152.880000
316.776703	152.660000
316.869965	152.680000
316.963257	152.500000
317.056519	151.680000
317.149811	151.680000
317.243073	151.980000
317.336365	152.280000
317.429626	152.640000
317.522919	153.160000
317.616180	153.660000
317.709473	153.480000
317.802765	153.320000
317.896027	153.160000
317.989319	153.560000
318.082611	153.200000
318.175873	153.240000
318.269165	153.360000
318.362488	153.200000
318.455750	152.640000
318.549042	153.200000
318.642303	153.540000
318.735626	152.960000
318.828888	153.080000
318.922211	152.780000
319.015472	153.100000
319.108765	152.400000
319.202057	152.140000
319.295349	152.420000
319.388641	152.720000
319.481934	151.940000
319.575226	152.200000
319.668518	153.000000
319.761810	152.920000
319.855103	153.100000
319.948395	153.400000
320.041687	153.640000
320.134979	153.580000
320.228271	153.320000
320.321564	153.100000
320.414856	153.040000
320.508148	152.720000
320.601440	152.500000
320.694763	152.240000
320.788025	153.020000
320.881348	152.880000
320.974640	153.020000
321.067963	152.720000
321.161224	153.140000
321.254547	152.060000
321.347839	152.740000
321.441162	152.660000
321.534454	152.840000
321.627747	152.680000
321.721069	153.460000
321.814362	153.140000
321.907654	153.140000
322.000946	153.320000
322.094269	153.960000
322.187561	153.760000
322.280884	154.100000
322.374176	154.180000
322.467468	154.580000
322.560791	154.220000
322.654083	154.720000
322.747406	154.620000
322.840698	155.140000
322.934021	155.240000
323.027344	155.340000
323.120636	154.860000
323.213959	154.320000
323.307251	153.720000
323.400574	152.900000
323.493866	152.560000
323.587219	152.620000
323.680511	153.400000
323.773834	153.560000
323.867157	153.760000
323.960449	153.860000
324.053772	153.500000
324.147095	153.000000
324.240387	153.220000
324.333710	153.720000
324.427032	153.680000
324.520355	154.020000
324.613647	153.680000
324.706970	153.420000
324.800293	153.180000
324.893616	153.440000
324.986938	153.640000
325.080231	153.660000
325.173553	153.840000
325.266876	154.140000
325.360199	154.020000
325.453522	153.520000
325.546875	153.440000
325.640167	153.680000
325.733521	153.680000
325.826813	153.780000
325.920166	153.400000
326.013489	153.500000
326.106812	152.500000
326.200134	151.800000
326.293457	151.200000
326.386780	151.460000
326.480103	151.200000
326.573425	151.500000
326.666748	151.720000
326.760071	152.280000
326.853424	152.360000
326.946747	152.520000
327.040070	153.560000
327.133392	153.300000
327.226715	152.740000
327.320068	152.500000
327.413391	153.120000
327.506714	151.900000
327.600037	151.840000
327.693390	152.160000
327.786713	152.320000
327.880066	152.180000
327.973358	152.900000
328.066742	154.020000
328.160034	154.240000
328.253418	154.500000
328.346710	154.080000
328.440063	153.720000
328.533417	152.860000
328.626740	152.840000
328.720093	152.540000
328.813416	152.580000
328.906769	152.680000
329.000092	152.960000
329.093445	152.760000
329.186768	152.800000
329.280121	153.260000
329.373444	153.440000
329.466797	153.380000
329.560120	153.560000
329.653473	154.160000
329.746796	153.640000
329.840149	153.440000
329.933502	153.360000
330.026825	153.220000
330.120178	152.600000
330.213562	152.500000
330.306854	152.580000
330.400238	152.560000
330.493561	152.520000
330.586945	153.440000
330.680237	153.780000
330.773621	154.240000
330.866974	154.620000
330.960327	154.800000
331.053680	153.980000
331.147003	154.300000
331.240356	154.160000
331.333710	153.940000
331.427063	153.780000
331.520416	153.660000
331.613770	153.300000
331.707123	153.380000
331.800476	153.280000
331.893829	154.060000
331.987152	154.780000
332.080505	154.580000
332.173859	154.100000
332.267212	153.900000
332.360565	153.140000
332.453918	152.400000
332.547333	152.480000
332.640656	152.600000
332.734039	152.820000
332.827362	152.940000
332.920746	153.500000
333.014069	153.960000
333.107452	154.500000
333.200806	154.680000
333.294159	154.560000
333.387543	154.120000
333.480896	153.500000
333.574249	152.780000
333.667603	152.520000
333.760956	152.960000
333.854340	152.840000
333.947693	152.960000
334.041046	153.440000
334.134430	153.560000
334.227783	153.000000
334.321136	153.040000
334.414520	152.920000
334.507874	152.820000
334.601227	152.720000
334.694611	152.840000
334.787964	153.060000
334.881348	153.520000
334.974701	153.440000
335.068085	153.640000
335.161438	154.040000
335.254822	154.140000
335.348175	154.040000
335.441559	153.640000
335.534943	154.100000
335.628296	153.520000
335.721680	153.320000
335.815033	153.420000
335.908417	154.180000
336.001770	153.840000
336.095154	153.540000
336.188538	153.320000
336.281891	152.700000
336.375275	152.120000
336.468658	151.600000
336.562012	152.200000
336.655396	152.660000
336.748779	153.360000
336.842133	153.620000
336.935516	153.940000
337.028900	153.520000
337.122284	153.460000
337.215637	153.160000
337.309021	152.840000
337.402435	152.660000
337.495789	152.520000
337.589203	151.960000
337.682526	151.680000
337.775940	152.240000
337.869324	152.380000
337.962708	152.440000
338.056091	153.120000
338.149475	152.920000
338.242859	152.720000
338.336243	152.540000
338.429626	153.080000
338.523010	152.880000
338.616394	152.940000
338.709778	153.000000
338.803162	153.360000
338.896545	153.140000
338.989929	152.700000
339.083313	153.140000
339.176697	152.640000
339.270081	152.340000
339.363464	152.680000
339.456848	153.140000
339.550232	152.600000
339.643616	152.320000
339.737030	152.360000
339.830383	151.940000
339.923828	152.060000
340.017181	152.380000
340.110596	152.900000
340.203949	152.700000
340.297363	152.480000
340.390778	152.360000
340.484161	152.200000
340.577545	152.000000
340.670959	152.200000
340.764343	152.460000
340.857727	152.720000
340.951111	152.160000
341.044525	152.640000
341.137909	152.280000
341.231293	152.160000
341.324707	151.780000
341.418091	153.060000
341.511505	152.720000
341.604889	153.040000
341.698303	153.220000
341.791687	153.360000
341.885071	152.840000
341.978485	152.500000
342.071899	152.840000
342.165283	153.000000
342.258698	153.020000
342.352081	153.300000
342.445496	154.320000
342.538879	153.960000
342.632324	153.640000
342.725708	153.560000
342.819122	153.080000
342.912506	152.380000
343.005920	152.140000
343.099335	153.160000
343.192719	153.040000
343.286133	152.900000
343.379547	153.140000
343.472931	153.960000
343.566345	152.840000
343.659760	153.120000
343.753143	153.420000
343.846558	153.060000
343.939972	152.540000
344.033386	153.400000
344.126770	152.960000
344.220184	153.040000
344.313599	153.520000
344.407043	153.720000
344.500427	153.120000
344.593872	154.100000
344.687225	153.580000
344.780670	153.160000
344.874054	152.960000
344.967499	153.240000
345.060913	152.780000
345.154327	152.980000
345.247742	152.860000
345.341156	152.620000
345.434570	152.280000
345.527985	152.120000
345.621399	152.260000
345.714813	152.060000
345.808228	152.420000
345.901642	152.320000
345.995056	152.060000
346.088470	152.200000
346.181885	152.740000
346.275299	152.680000
346.368713	152.440000
346.462128	152.460000
346.555573	152.700000
346.648987	152.820000
346.742401	152.680000
346.835815	153.560000
346.929260	153.540000
347.022644	153.540000
347.116119	153.240000
347.209503	153.120000
347.302948	153.340000
347.396362	153.880000
347.489807	153.920000
347.583221	154.860000
347.676636	155.080000
347.770050	154.340000
347.863495	154.000000
347.956909	153.700000
348.050323	152.760000
348.143768	153.000000
348.237183	152.920000
348.330597	152.980000
348.424042	153.400000
348.517456	153.860000
348.610901	153.700000
348.704315	153.540000
348.797760	153.060000
348.891174	152.280000
348.984619	151.880000
349.078033	152.220000
349.171448	153.020000
349.264923	152.980000
349.358337	153.040000
349.451782	153.300000
349.545197	152.360000
349.638641	151.740000
349.732086	151.800000
349.825500	152.500000
349.918945	152.140000
350.012390	152.900000
350.105804	153.160000
350.199249	153.280000
350.292664	153.080000
350.386108	153.220000
350.479553	153.740000
350.572968	153.620000
350.666412	154.020000
350.759857	153.700000
350.853302	154.180000
350.946716	153.340000
351.040161	153.540000
351.133606	153.280000
351.227081	153.580000
351.320465	153.920000
351.413940	153.980000
351.507355	153.940000
351.600830	154.300000
351.694244	153.820000
351.787720	153.300000
351.881104	153.460000
351.974579	153.180000
352.067993	153.840000
352.161469	154.380000
352.254883	153.720000
352.348358	153.580000
352.441803	153.660000
352.535248	152.800000
352.628693	152.760000
352.722137	153.040000
352.815582	153.340000
352.909027	153.500000
353.002472	153.500000
353.095917	153.420000
353.189362	153.720000
353.282806	153.320000
353.376251	152.920000
353.469696	152.460000
353.563141	153.020000
353.656586	152.520000
353.750061	152.280000
353.843475	152.440000
353.936981	153.020000
354.030396	152.000000
354.123871	152.400000
354.217285	153.300000
354.310760	153.760000
354.404175	153.720000
354.497681	153.680000
354.591095	153.480000
354.684570	152.380000
354.777985	151.700000
354.871490	151.360000
354.964935	152.080000
355.058380	152.220000
355.151855	152.220000
355.245300	152.960000
355.338745	153.520000
355.432220	153.480000
355.525665	153.060000
355.619110	153.720000
355.712585	153.260000
355.806030	152.760000
355.899475	152.120000
355.992950	152.840000
356.086426	153.360000
356.179871	153.360000
356.273346	153.500000
356.366791	154.140000
356.460266	154.100000
356.553711	153.440000
356.647186	153.500000
356.740631	153.240000
356.834106	152.720000
356.927551	152.740000
357.021027	152.580000
357.114471	152.640000
357.207947	153.140000
357.301422	153.620000
357.394867	153.480000
357.488342	153.920000
357.581818	153.840000
357.675262	153.720000
357.768738	153.420000
357.862213	152.820000
357.955658	152.680000
358.049133	152.720000
358.142609	153.000000
358.236053	152.720000
358.329529	153.180000
358.423035	153.280000
358.516449	153.120000
358.609955	153.220000
358.703400	154.020000
358.796906	154.140000
358.890350	153.760000
358.983826	154.120000
359.077271	153.260000
359.170776	152.720000
359.264221	152.460000
359.357727	152.460000
359.451172	152.460000
359.544647	152.720000
359.638123	152.460000
359.731598	152.680000
359.825073	152.960000
359.918549	152.960000
360.012024	153.480000
360.105499	153.520000
360.198975	153.620000
360.292450	153.760000
360.385925	153.680000
360.479401	152.740000
360.572876	153.300000
360.666351	153.360000
360.759857	152.820000
360.853302	152.800000
360.946808	152.480000
361.040253	152.240000
361.133759	151.780000
361.227203	152.320000
361.320709	152.020000
361.414154	153.200000
361.507660	153.360000
361.601105	154.100000
361.694641	154.540000
361.788086	154.260000
361.881592	154.360000
361.975067	153.980000
362.068542	154.060000
362.162018	153.840000
362.255524	153.900000
362.348999	153.480000
362.442474	154.040000
362.535950	153.160000
362.629456	152.680000
362.722931	152.680000
362.816406	153.060000
362.909882	153.160000
363.003387	153.200000
363.096863	153.620000
363.190338	153.800000
363.283875	153.400000
363.377319	153.420000
363.470825	154.160000
363.564301	153.600000
363.657806	154.000000
363.751282	153.740000
363.844788	154.280000
363.938232	153.520000
364.031769	154.020000
364.125214	153.800000
364.218750	154.720000
364.312225	153.440000
364.405731	153.780000
364.499207	153.260000
364.592712	153.060000
364.686188	152.520000
364.779694	152.900000
364.873169	152.760000
364.966675	152.700000
365.060150	152.720000
365.153656	153.160000
365.247131	153.220000
365.340637	153.280000
365.434143	154.040000
365.527618	154.120000
365.621155	152.940000
365.714600	152.680000
365.808136	152.960000
365.901611	152.040000
365.995117	151.660000
366.088593	152.060000
366.182129	152.060000
366.275604	151.880000
366.369110	152.180000
366.462585	152.380000
366.556122	153.100000
366.649567	153.160000
366.743103	153.480000
366.836609	152.980000
366.930115	153.380000
367.023590	153.020000
367.117096	152.960000
367.210602	152.720000
367.304108	153.700000
367.397614	154.160000
367.491119	154.320000
367.584595	154.480000
367.678101	154.620000
367.771606	154.100000
367.865112	153.480000
367.958649	152.880000
368.052124	152.640000
368.145660	152.340000
368.239136	153.120000
368.332672	153.220000
368.426147	153.660000
368.519684	153.600000
368.613159	153.880000
368.706696	153.300000
368.800171	153.320000
368.893707	152.980000
368.987183	153.240000
369.080719	153.220000
369.174225	153.060000
369.267731	153.040000
369.361237	153.200000
369.454742	153.220000
369.548248	153.600000
369.641754	153.320000
369.735260	153.180000
369.828766	152.600000
369.922272	152.940000
370.015808	152.220000
370.109314	152.180000
370.202820	152.140000
370.296356	153.400000
370.389832	152.960000
370.483368	152.800000
370.576874	152.840000
370.670410	153.300000
370.763885	152.100000
370.857422	152.000000
370.950928	152.120000
371.044464	153.020000
371.137939	152.860000
371.231476	153.380000
371.324982	153.860000
371.418518	154.000000
371.512024	153.780000
371.605560	153.340000
371.699066	153.740000
371.792572	153.500000
371.886108	153.880000
371.979614	153.320000
372.073120	154.080000
372.166656	153.640000
372.260162	153.680000
372.353668	153.420000
372.447205	153.520000
372.540710	153.140000
372.634277	153.160000
372.727753	153.120000
372.821320	153.100000
372.914795	152.920000
373.008362	152.880000
373.101837	153.020000
373.195404	152.980000
373.288879	152.740000
373.382446	153.740000
373.475922	153.960000
373.569489	154.660000
373.662964	154.900000
373.756531	155.280000
373.850037	154.920000
373.943573	154.620000
374.037109	153.700000
374.130615	154.020000
374.224152	154.020000
374.317657	153.660000
374.411194	154.420000
374.504730	154.140000
374.598236	153.400000
374.691772	153.040000
374.785309	153.080000
374.878815	152.040000
374.972351	152.700000
375.065887	152.900000
375.159454	153.700000
375.252930	153.800000
375.346497	154.520000
375.440002	155.020000
375.533569	154.880000
375.627045	154.040000
375.720612	154.160000
375.814117	154.220000
375.907684	153.320000
376.001160	153.100000
376.094727	152.700000
376.188232	153.100000
376.281799	152.960000
376.375336	153.400000
376.468872	154.140000
376.562408	154.940000
376.655914	154.300000
376.749451	153.900000
376.842987	154.180000
376.936523	153.580000
377.030060	153.520000
377.123596	153.940000
377.217133	153.740000
377.310669	153.320000
377.404205	153.880000
377.497772	153.720000
377.591278	153.320000
377.684845	154.180000
377.778351	154.560000
377.871918	154.060000
377.965424	153.600000
378.058990	153.720000
378.152496	153.200000
378.246063	153.200000
378.339569	153.620000
378.433136	153.720000
378.526642	153.500000
378.620209	153.300000
378.713745	152.620000
378.807312	152.900000
378.900848	153.240000
378.994385	153.780000
379.087921	153.200000
379.181458	153.480000
379.274994	152.260000
379.368530	151.800000
379.462097	151.740000
379.555634	152.440000
379.649170	152.040000
379.742706	152.920000
379.836273	153.460000
379.929810	153.040000
380.023376	152.780000
380.116882	152.920000
380.210449	152.500000
380.303986	152.060000
380.397552	151.720000
380.491058	152.180000
380.584656	151.820000
380.678162	152.020000
380.771729	152.360000
380.865265	153.600000
380.958832	153.320000
381.052368	153.960000
381.145935	154.380000
381.239471	154.540000
381.333008	153.820000
381.426575	153.720000
381.520111	154.160000
381.613647	154.220000
381.707214	153.900000
381.800751	153.200000
381.894318	153.780000
381.987854	152.760000
382.081421	152.280000
382.174988	152.280000
382.268524	152.560000
382.362091	152.420000
382.455627	153.660000
382.549194	153.360000
382.642731	152.920000
382.736298	153.060000
382.829834	152.600000
382.923401	152.800000
383.016937	153.440000
383.110504	154.060000
383.204041	154.140000
383.297607	154.780000
383.391174	153.360000
383.484741	153.840000
383.578278	153.080000
383.671844	152.760000
383.765411	151.580000
383.858948	152.500000
383.952515	151.860000
384.046051	152.800000
384.139618	153.180000
384.233185	153.960000
384.326721	153.440000
384.420288	153.980000
384.513855	153.900000
384.607422	154.360000
384.700989	154.480000
384.794525	154.300000
384.888123	154.300000
384.981659	154.240000
385.075226	153.520000
385.168762	153.340000
385.262360	153.480000
385.355896	152.080000
385.449463	151.840000
385.542999	152.020000
385.636597	152.640000
385.730164	152.640000
385.823730	152.980000
385.917267	152.920000
386.010834	152.980000
386.104401	152.580000
386.197968	153.100000
386.291534	153.360000
386.385101	153.560000
386.478668	153.920000
386.572235	153.900000
386.665802	153.320000
386.759338	153.120000
386.852905	152.780000
386.946472	152.560000
387.040070	152.520000
387.133606	152.560000
387.227203	153.060000
387.320740	153.480000
387.414337	152.880000
387.507874	152.960000
387.601471	153.300000
387.695007	152.520000
387.788605	152.380000
387.882141	153.080000
387.975739	153.000000
388.069275	152.700000
388.162872	153.540000
388.256439	153.520000
388.350037	153.120000
388.443604	152.860000
388.537170	152.920000
388.630737	152.980000
388.724304	152.920000
388.817871	153.020000
388.911438	153.360000
389.005005	153.380000
389.098602	153.680000
389.192169	153.560000
389.285736	154.220000
389.379333	154.000000
389.472870	153.780000
389.566467	153.380000
389.660034	153.400000
389.753632	152.440000
389.847168	152.580000
389.940765	153.180000
390.034332	153.040000
390.127930	152.500000
390.221466	152.680000
390.315063	152.400000
390.408630	151.520000
390.502228	151.040000
390.595795	151.920000
390.689362	152.040000
390.782959	152.520000
390.876526	152.900000
390.970093	153.300000
391.063690	153.720000
391.157257	153.780000
391.250824	153.980000
391.344421	154.180000
391.437988	154.620000
391.531555	154.200000
391.625153	154.100000
391.718750	154.240000
391.812317	154.020000
391.905914	153.440000
391.999481	153.500000
392.093079	153.700000
392.186615	153.640000
392.280243	153.900000
392.373779	154.100000
392.467407	154.420000
392.560944	154.440000
392.654572	153.820000
392.748108	153.600000
392.841736	153.700000
392.935303	153.160000
393.028900	152.740000
393.122467	152.920000
393.216064	152.620000
393.309631	151.980000
393.403229	151.680000
393.496796	151.840000
393.590393	151.280000
393.683990	151.640000
393.777557	152.520000
393.871155	152.760000
393.964722	153.080000
394.058350	153.540000
394.151917	153.360000
394.245514	152.860000
394.339081	153.480000
394.432678	153.540000
394.526245	153.260000
394.619873	153.100000
394.713409	153.440000
394.807037	153.000000
394.900604	152.960000
394.994202	153.180000
395.087769	153.280000
395.181396	152.840000
395.274994	153.300000
395.368561	152.920000
395.462158	153.220000
395.555756	153.100000
395.649353	153.460000
395.742920	152.780000
395.836517	153.340000
395.930115	152.220000
396.023712	152.240000
396.117279	152.560000
396.210876	152.200000
396.304474	151.700000
396.398071	152.240000
396.491669	152.860000
396.585266	152.400000
396.678833	152.720000
396.772461	153.380000
396.866028	153.420000
396.959656	153.260000
397.053223	153.360000
397.146851	153.000000
397.240417	152.360000
397.334015	153.180000
397.427582	152.740000
397.521210	152.580000
397.614807	153.360000
397.708405	153.840000
397.802002	153.240000
397.895599	153.880000
397.989197	153.720000
398.082794	153.500000
398.176392	153.560000
398.269989	153.920000
398.363586	154.060000
398.457184	155.560000
398.550781	156.360000
398.644379	156.820000
398.737976	157.700000
398.831573	159.880000
398.925201	162.060000
399.018768	166.840000
399.112396	175.760000
399.205963	188.720000
399.299591	209.260000
399.393158	244.320000
399.486786	306.600000
399.580353	419.400000
399.673981	613.360000
399.767578	902.600000
399.861206	1262.060000
399.954773	1621.200000
400.048401	1878.820000
400.141998	1961.420000
400.235596	1844.220000
400.329193	1567.080000
400.422791	1211.160000
400.516418	871.320000
400.610016	604.240000
400.703613	423.780000
400.797211	311.800000
400.890808	246.940000
400.984436	211.300000
401.078033	190.500000
401.171631	178.200000
401.265259	170.940000
401.358826	166.720000
401.452484	163.360000
401.546051	161.700000
401.639679	160.100000
401.733246	159.200000
401.826904	157.820000
401.920471	156.080000
402.014099	155.280000
402.107697	154.980000
402.201324	154.780000
402.294891	154.980000
402.388550	155.580000
402.482147	155.540000
402.575745	154.780000
402.669373	154.200000
402.762970	153.640000
402.856567	153.440000
402.950195	153.480000
403.043793	153.640000
403.137390	154.500000
403.231018	153.640000
403.324615	154.200000
403.418243	153.540000
403.511841	154.240000
403.605469	153.340000
403.699066	154.140000
403.792694	153.920000
403.886292	154.560000
403.979919	154.220000
404.073517	154.240000
404.167145	154.260000
404.260712	154.300000
404.354370	154.140000
404.447937	154.140000
404.541595	154.420000
404.635162	154.740000
404.728821	155.120000
404.822418	154.340000
404.916046	153.960000
405.009644	154.120000
405.103271	153.940000
405.196899	153.380000
405.290497	153.820000
405.384125	154.320000
405.477722	153.700000
405.571350	153.220000
405.664948	153.100000
405.758575	152.820000
405.852203	152.100000
405.945801	152.420000
406.039429	152.620000
406.133057	152.400000
406.226654	152.520000
406.320312	152.780000
406.413879	152.740000
406.507538	153.160000
406.601135	152.980000
406.694763	153.660000
406.788361	153.320000
406.882019	153.000000
406.975586	153.060000
407.069244	154.100000
407.162872	153.860000
407.256470	154.120000
407.350098	154.160000
407.443726	153.520000
407.537323	152.500000
407.630951	152.540000
407.724579	152.400000
407.818207	152.980000
407.911804	153.240000
408.005432	153.460000
408.099060	153.720000
408.192688	154.240000
408.286285	154.160000
408.379913	153.400000
408.473572	153.400000
408.567169	152.620000
408.660828	152.300000
408.754395	152.020000
408.848053	152.520000
408.941650	153.020000
409.035309	153.080000
409.128906	153.360000
409.222565	153.600000
409.316132	153.800000
409.409790	153.220000
409.503387	153.200000
409.597046	153.000000
409.690674	152.760000
409.784302	152.800000
409.877930	152.700000
409.971558	153.060000
410.065186	152.740000
410.158783	152.520000
410.252411	152.340000
410.346039	152.840000
410.439667	152.640000
410.533295	153.140000
410.626923	153.740000
410.720551	153.720000
410.814209	153.960000
410.907806	154.340000
411.001465	153.860000
411.095062	153.780000
411.188721	153.980000
411.282318	153.460000
411.375977	152.800000
411.469574	152.980000
411.563232	152.300000
411.656830	151.900000
411.750488	151.740000
411.844086	151.880000
411.937744	152.000000
412.031372	152.240000
412.125000	152.280000
412.218628	152.660000
412.312256	153.160000
412.405884	153.440000
412.499512	153.420000
412.593170	153.840000
412.686798	153.680000
412.780426	152.940000
412.874054	152.820000
412.967682	152.840000
413.061310	153.040000
413.154968	153.200000
413.248566	153.760000
413.342224	153.600000
413.435852	153.900000
413.529510	153.760000
413.623108	153.240000
413.716766	153.260000
413.810364	153.800000
413.904022	153.420000
413.997650	152.940000
414.091309	153.780000
414.184906	153.720000
414.278564	152.960000
414.372192	153.520000
414.465851	153.780000
414.559479	153.220000
414.653107	153.520000
414.746735	153.580000
414.840393	153.220000
414.934021	153.480000
415.027649	153.240000
415.121277	153.020000
415.214935	153.600000
415.308563	153.460000
415.402191	152.520000
415.495850	152.880000
415.589478	152.380000
415.683136	151.780000
415.776733	152.260000
415.870422	153.260000
415.964020	152.840000
416.057678	153.340000
416.151306	153.600000
416.244965	153.220000
416.338562	152.900000
416.432251	153.620000
416.525848	154.020000
416.619507	154.160000
416.713165	154.420000
416.806793	154.480000
416.900421	154.260000
416.994080	153.580000
417.087708	153.480000
417.181366	153.020000
417.274994	152.940000
417.368622	153.180000
417.462280	153.720000
417.555908	153.440000
417.649567	153.500000
417.743195	153.480000
417.836853	153.500000
417.930481	153.660000
418.024170	154.020000
418.117767	154.480000
418.211426	154.780000
418.305054	154.660000
418.398712	153.840000
418.492340	153.880000
418.585999	154.100000
418.679626	154.060000
418.773285	153.820000
418.866913	154.400000
418.960571	154.480000
419.054230	154.360000
419.147858	154.440000
419.241516	154.780000
419.335144	154.540000
419.428802	154.300000
419.522461	154.000000
419.616089	153.340000
419.709747	153.520000
419.803375	153.520000
419.897034	153.300000
419.990662	153.120000
420.084320	153.860000
420.177979	154.060000
420.271606	154.380000
420.365295	154.900000
420.458893	155.200000
420.552582	155.300000
420.646210	154.960000
420.739868	154.420000
420.833496	154.100000
420.927155	153.720000
421.020782	153.200000
421.114471	152.320000
421.208069	152.600000
421.301758	152.840000
421.395386	153.040000
421.489044	153.140000
421.582703	153.840000
421.676361	154.280000
421.769989	154.060000
421.863647	154.360000
421.957306	154.560000
422.050934	154.440000
422.144592	154.220000
422.238251	153.940000
422.331909	153.800000
422.425537	153.620000
422.519196	153.440000
422.612854	153.020000
422.706543	152.520000
422.800140	152.400000
422.893829	152.040000
422.987457	151.880000
423.081146	152.160000
423.174744	153.420000
423.268433	153.260000
423.362061	153.480000
423.455750	153.700000
423.549347	153.680000
423.643036	152.820000
423.736664	153.280000
423.830353	153.000000
423.924011	153.280000
424.017639	152.700000
424.111298	153.080000
424.204956	152.820000
424.298615	153.140000
424.392273	153.040000
424.485931	153.340000
424.579559	153.340000
424.673218	153.360000
424.766876	153.460000
424.860535	152.880000
424.954193	153.000000
425.047882	153.340000
425.141510	153.700000
425.235199	153.520000
425.328796	153.700000
425.422485	153.440000
425.516113	152.720000
425.609802	152.560000
425.703430	153.060000
425.797119	153.000000
425.890747	153.140000
425.984436	153.600000
426.078064	153.420000
426.171753	152.940000
426.265411	153.280000
426.359070	153.740000
426.452728	153.340000
426.546356	153.540000
426.640015	153.560000
426.733673	153.400000
426.827332	153.080000
426.920990	154.020000
427.014648	153.480000
427.108307	153.500000
427.201965	153.940000
427.295624	154.040000
427.389282	153.240000
427.482941	153.660000
427.576630	153.660000
427.670258	153.240000
427.763947	153.140000
427.857574	153.440000
427.951263	153.460000
428.044922	153.260000
428.138611	153.240000
428.232239	153.940000
428.325928	154.300000
428.419556	154.620000
428.513245	154.700000
428.606903	155.140000
428.700562	154.260000
428.794220	153.640000
428.887878	152.720000
428.981537	153.300000
429.075195	153.360000
429.168854	153.900000
429.262512	154.060000
429.356201	154.660000
429.449860	153.920000
429.543518	153.820000
429.637177	154.020000
429.730835	153.840000
429.824493	153.880000
429.918182	154.400000
430.011810	153.940000
430.105530	153.100000
430.199158	153.380000
430.292847	153.120000
430.386475	152.800000
430.480164	152.920000
430.573792	153.060000
430.667511	153.060000
430.761139	153.320000
430.854828	153.820000
430.948456	153.820000
431.042145	154.260000
431.135834	154.040000
431.229492	154.320000
431.323151	154.460000
431.416809	154.620000
431.510468	154.460000
431.604156	154.220000
431.697815	153.920000
431.791473	153.260000
431.885132	152.880000
431.978821	153.160000
432.072479	153.640000
432.166138	154.160000
432.259827	154.140000
432.353485	154.600000
432.447174	154.360000
432.540802	154.180000
432.634491	153.660000
432.728149	154.240000
432.821838	154.800000
432.915466	154.520000
433.009186	154.700000
433.102814	154.360000
433.196503	153.900000
433.290131	153.540000
433.383850	154.040000
433.477509	154.040000
433.571167	155.200000
433.664856	155.740000
433.758514	155.720000
433.852173	155.440000
433.945862	155.140000
434.039520	154.680000
434.133179	154.040000
434.226868	153.800000
434.320526	153.420000
434.414185	154.240000
434.507874	153.380000
434.601562	153.860000
434.695221	153.360000
434.788910	153.620000
434.882538	153.220000
434.976257	153.400000
435.069885	153.160000
435.163574	153.740000
435.257233	153.540000
435.350922	153.340000
435.444580	153.120000
435.538269	152.860000
435.631897	153.240000
435.725616	153.660000
435.819275	154.260000
435.912964	155.340000
436.006622	155.980000
436.100311	155.840000
436.193970	155.260000
436.287628	154.920000
436.381317	154.240000
436.474976	153.740000
436.568665	153.080000
436.662323	153.440000
436.756012	153.280000
436.849670	153.340000
436.943390	153.320000
437.037018	153.420000
437.130737	153.520000
437.224365	153.580000
437.318085	153.640000
437.411713	153.540000
437.505432	153.960000
437.599060	154.480000
437.692780	154.740000
437.786407	154.640000
437.880127	154.800000
437.973755	154.300000
438.067474	153.500000
438.161133	153.480000
438.254822	153.960000
438.348480	153.760000
438.442169	154.660000
438.535828	154.860000
438.629517	154.260000
438.723175	153.440000
438.816864	154.080000
438.910553	153.560000
439.004211	153.460000
439.097900	153.360000
439.191559	153.680000
439.285248	152.840000
439.378906	153.180000
439.472626	152.880000
439.566284	152.940000
439.659973	153.360000
439.753632	153.580000
439.847321	153.580000
439.940979	154.040000
440.034698	154.040000
440.128326	153.340000
440.222046	153.340000
440.315674	152.440000
440.409393	152.540000
440.503082	152.320000
440.596741	152.700000
440.690430	152.880000
440.784088	153.040000
440.877777	152.460000
440.971466	152.860000
441.065125	152.460000
441.158813	152.260000
441.252502	152.660000
441.346161	152.900000
441.439850	153.100000
441.533539	153.060000
441.627197	153.080000
441.720886	152.800000
441.814606	153.080000
441.908234	153.280000
442.001953	153.340000
442.095612	153.560000
442.189301	153.880000
442.282959	153.920000
442.376678	152.960000
442.470306	153.780000
442.564026	153.380000
442.657684	153.100000
442.751404	153.120000
442.845032	154.420000
442.938751	153.820000
443.032440	154.080000
443.126099	154.020000
443.219788	154.060000
443.313477	153.560000
443.407166	153.720000
443.500824	153.820000
443.594513	154.260000
443.688202	154.100000
443.781891	153.560000
443.875549	153.220000
443.969238	153.260000
444.062927	153.020000
444.156647	153.020000
444.250275	153.600000
444.343994	153.940000
444.437653	153.760000
444.531372	153.600000
444.625031	153.480000
444.718719	152.960000
444.812378	153.040000
444.906097	153.040000
444.999756	152.500000
445.093445	152.540000
445.187103	152.560000
445.280823	152.760000
445.374512	152.100000
445.468201	152.420000
445.561859	152.060000
445.655548	152.160000
445.749237	151.320000
445.842926	152.040000
445.936615	152.820000
446.030304	152.900000
446.123962	153.180000
446.217651	153.680000
446.311340	153.660000
446.405029	152.700000
446.498749	152.720000
446.592407	152.060000
446.686096	152.200000
446.779755	152.140000
446.873474	152.780000
446.967133	152.820000
447.060852	152.880000
447.154510	152.840000
447.248230	152.760000
447.341858	152.680000
447.435577	152.360000
447.529236	152.280000
447.622955	151.840000
447.716644	152.020000
447.810333	151.880000
447.904022	152.580000
447.997711	152.560000
448.091400	153.180000
448.185059	153.040000
448.278748	153.300000
448.372437	152.940000
448.466125	153.440000
448.559814	153.100000
448.653503	153.680000
448.747192	153.900000
448.840912	154.200000
448.934570	154.200000
449.028290	154.420000
449.121948	153.980000
449.215637	153.320000
449.309296	153.100000
449.403015	153.300000
449.496674	153.080000
449.590393	153.220000
449.684052	153.200000
449.777771	154.100000
449.871429	153.200000
449.965149	152.960000
450.058838	152.940000
450.152527	153.640000
450.246216	152.880000
450.339905	153.540000
450.433594	153.580000
450.527283	154.500000
450.620972	154.060000
450.714661	154.220000
450.808350	153.920000
450.902039	154.320000
450.995728	153.320000
451.089417	153.080000
451.183105	152.960000
451.276794	153.820000
451.370514	152.980000
451.464172	152.240000
451.557892	152.120000
451.651550	152.340000
451.745270	151.420000
451.838928	151.380000
451.932648	152.000000
452.026306	152.520000
452.120026	151.740000
452.213684	152.300000
452.307404	152.860000
452.401062	153.120000
452.494781	153.320000
452.588470	153.800000
452.682159	153.320000
452.775848	153.240000
452.869537	152.260000
452.963226	151.640000
453.056915	151.620000
453.150604	151.620000
453.244293	151.840000
453.337982	153.180000
453.431671	153.700000
453.525360	154.100000
453.619049	154.280000
453.712769	154.040000
453.806427	153.160000
453.900146	152.840000
453.993805	152.480000
454.087555	153.180000
454.181213	153.380000
454.274933	153.300000
454.368591	153.160000
454.462311	152.900000
454.555969	152.040000
454.649689	153.040000
454.743347	152.960000
454.837067	153.460000
454.930756	154.380000
455.024445	154.780000
455.118134	153.740000
455.211853	154.360000
455.305542	154.100000
455.399231	153.480000
455.492920	153.460000
455.586609	153.540000
455.680298	153.560000
455.773987	153.180000
455.867676	153.240000
455.961365	153.240000
456.055084	153.120000
456.148773	152.680000
456.242493	153.100000
456.336151	153.080000
456.429871	153.500000
456.523529	153.820000
456.617249	153.720000
456.710907	154.100000
456.804626	153.920000
456.898315	153.260000
456.992035	152.960000
457.085693	152.820000
457.179413	151.680000
457.273102	152.840000
457.366791	152.640000
457.460480	152.740000
457.554199	153.540000
457.647888	154.120000
457.741577	153.320000
457.835266	153.740000
457.928955	153.860000
458.022644	154.000000
458.116364	154.060000
458.210052	153.660000
458.303741	153.680000
458.397461	153.120000
458.491119	152.260000
458.584839	152.360000
458.678528	152.380000
458.772247	152.020000
458.865906	152.160000
458.959625	153.120000
459.053284	153.020000
459.147003	152.900000
459.240692	153.800000
459.334412	154.020000
459.428070	153.660000
459.521790	153.400000
459.615479	153.400000
459.709198	153.520000
459.802887	152.940000
459.896576	152.540000
459.990265	152.700000
460.083954	153.060000
460.177673	151.980000
460.271362	152.860000
460.365051	152.980000
460.458740	152.720000
460.552429	152.260000
460.646149	152.780000
460.739838	151.980000
460.833527	152.200000
460.927246	152.240000
461.020905	152.180000
461.114655	151.960000
461.208313	152.500000
461.302032	151.820000
461.395691	151.920000
461.489441	151.740000
461.583099	151.680000
461.676819	151.260000
461.770477	151.980000
461.864197	151.980000
461.957916	152.420000
462.051605	151.940000
462.145294	153.100000
462.238983	152.580000
462.332703	152.960000
462.426392	153.680000
462.520081	154.040000
462.613770	153.240000
462.707489	153.620000
462.801178	153.400000
462.894867	152.520000
462.988556	152.440000
463.082275	153.020000
463.175964	152.780000
463.269684	153.100000
463.363342	153.320000
463.457092	152.900000
463.550751	152.760000
463.644470	152.840000
463.738129	152.540000
463.831879	152.680000
463.925537	153.580000
464.019257	153.620000
464.112946	153.520000
464.206665	153.380000
464.300323	152.940000
464.394043	152.380000
464.487762	152.120000
464.581451	152.500000
464.675140	152.360000
464.768829	153.020000
464.862549	153.400000
464.956238	153.360000
465.049927	153.300000
465.143646	153.420000
465.237335	153.120000
465.331024	153.580000
465.424713	153.580000
465.518433	153.500000
465.612152	153.500000
465.705811	153.740000
465.799561	153.280000
465.893219	152.920000
465.986938	152.660000
466.080597	152.440000
466.174347	152.680000
466.268005	152.820000
466.361725	152.860000
466.455414	153.120000
466.549133	153.260000
466.642792	152.880000
466.736542	152.500000
466.830231	152.680000
466.923920	152.820000
467.017609	152.880000
467.111328	152.680000
467.205017	152.600000
467.298706	152.560000
467.392426	152.460000
467.486115	152.660000
467.579803	152.440000
467.673523	152.820000
467.767212	153.260000
467.860901	153.280000
467.954651	153.460000
468.048309	153.880000
468.142029	153.980000
468.235718	153.880000
468.329437	153.440000
468.423096	153.380000
468.516846	153.220000
468.610504	152.560000
468.704224	152.180000
468.797913	152.080000
468.891632	152.060000
468.985291	151.960000
469.079010	152.260000
469.172729	151.940000
469.266418	152.800000
469.360107	152.940000
469.453827	152.960000
469.547516	153.000000
469.641205	153.460000
469.734924	153.380000
469.828613	153.420000
469.922302	153.620000
470.016022	153.640000
470.109711	153.540000
470.203430	152.760000
470.297150	152.180000
470.390808	152.500000
470.484558	152.240000
470.578217	152.580000
470.671936	153.460000
470.765625	154.240000
470.859344	153.560000
470.953003	154.220000
471.046753	153.840000
471.140411	152.880000
471.234131	152.680000
471.327820	153.360000
471.421539	152.720000
471.515228	152.780000
471.608948	153.160000
471.702637	152.720000
471.796326	152.300000
471.890045	153.020000
471.983734	152.920000
472.077423	152.700000
472.171143	152.700000
472.264832	152.700000
472.358521	152.240000
472.452240	152.200000
472.545929	153.140000
472.639648	153.180000
472.733337	153.640000
472.827057	153.700000
472.920746	153.780000
473.014465	153.700000
473.108124	153.900000
473.201874	153.500000
473.295532	153.420000
473.389252	153.920000
473.482941	154.060000
473.576660	153.800000
473.670319	153.880000
473.764069	154.180000
473.857727	154.100000
473.951477	154.000000
474.045166	154.520000
474.138855	154.060000
474.232574	153.560000
474.326263	153.200000
474.419952	152.860000
474.513672	152.660000
474.607361	152.540000
474.701050	152.700000
474.794769	153.040000
474.888458	153.260000
474.982178	153.240000
475.075867	153.700000
475.169586	153.960000
475.263275	153.860000
475.356995	153.640000
475.450653	153.280000
475.544403	153.060000
475.638062	153.580000
475.731812	153.100000
475.825470	152.880000
475.919189	153.080000
476.012878	153.300000
476.106598	152.580000
476.200256	153.220000
476.294006	153.480000
476.387695	153.520000
476.481384	153.260000
476.575104	153.420000
476.668793	153.080000
476.762512	152.440000
476.856201	153.120000
476.949890	152.940000
477.043610	152.200000
477.137299	152.140000
477.230988	152.960000
477.324707	152.340000
477.418396	153.060000
477.512146	153.400000
477.605804	153.180000
477.699524	153.200000
477.793213	152.720000
477.886932	152.440000
477.980591	152.480000
478.074341	152.400000
478.167999	151.420000
478.261749	152.100000
478.355408	151.980000
478.449127	152.500000
478.542816	153.640000
478.636536	154.780000
478.730225	154.760000
478.823944	155.000000
478.917633	154.920000
479.011322	154.680000
479.105042	154.340000
479.198730	154.480000
479.292450	154.220000
479.386139	154.260000
479.479828	154.120000
479.573547	154.640000
479.667267	154.560000
479.760925	154.920000
479.854675	154.760000
479.948334	154.760000
480.042084	153.640000
480.135742	153.560000
480.229462	153.000000
480.323151	153.260000
480.416870	152.320000
480.510529	153.020000
480.604279	152.420000
480.697937	153.080000
480.791656	152.040000
480.885345	152.120000
480.979065	151.900000
481.072754	152.720000
481.166473	152.660000
481.260132	153.080000
481.353882	153.260000
481.447540	153.200000
481.541260	153.140000
481.635010	152.700000
481.728668	152.680000
481.822388	152.500000
481.916077	152.560000
482.009796	152.180000
482.103485	152.360000
482.197205	152.880000
482.290863	153.320000
482.384613	153.240000
482.478271	152.780000
482.571991	152.980000
482.665680	152.560000
482.759399	153.140000
482.853058	153.500000
482.946808	153.860000
483.040466	153.600000
483.134216	153.760000
483.227875	153.060000
483.321594	153.160000
483.415283	153.160000
483.509003	152.920000
483.602661	152.540000
483.696411	152.880000
483.790070	152.520000
483.883789	152.740000
483.977478	153.520000
484.071198	153.700000
484.164917	153.240000
484.258606	152.820000
484.352325	153.180000
484.445984	152.780000
484.539734	153.020000
484.633392	152.700000
484.727142	153.320000
484.820801	153.100000
484.914520	153.260000
485.008209	153.460000
485.101929	154.280000
485.195587	153.940000
485.289337	153.820000
485.382996	153.600000
485.476715	153.480000
485.570404	153.940000
485.664124	153.780000
485.757782	153.980000
485.851532	153.700000
485.945190	153.300000
486.038910	152.820000
486.132599	153.420000
486.226318	152.820000
486.319977	152.940000
486.413727	153.620000
486.507446	152.980000
486.601105	152.400000
486.694855	152.560000
486.788513	152.640000
486.882233	152.380000
486.975922	152.820000
487.069641	153.000000
487.163300	152.840000
487.257050	153.800000
487.350708	153.340000
487.444427	152.940000
487.538116	152.800000
487.631836	152.900000
487.725494	152.060000
487.819214	152.540000
487.912903	152.660000
488.006622	153.360000
488.100281	153.520000
488.194031	153.600000
488.287689	153.700000
488.381409	154.240000
488.475098	153.440000
488.568817	153.600000
488.662476	153.220000
488.756226	152.620000
488.849945	151.700000
488.943604	151.940000
489.037354	152.000000
489.131012	152.200000
489.224731	152.380000
489.318390	152.660000
489.412140	152.720000
489.505798	152.540000
489.599518	152.280000
489.693207	152.680000
489.786926	153.080000
489.880585	152.900000
489.974335	153.140000
490.067993	154.360000
490.161713	154.320000
490.255371	154.680000
490.349121	154.840000
490.442780	154.340000
490.536499	153.340000
490.630188	153.040000
490.723907	152.240000
490.817566	152.440000
490.911285	152.780000
491.004974	152.660000
491.098694	152.540000
491.192413	153.760000
491.286102	153.360000
491.379822	153.380000
491.473480	153.800000
491.567200	153.960000
491.660889	152.780000
491.754608	152.760000
491.848267	152.400000
491.941986	152.140000
492.035675	152.040000
492.129395	152.640000
492.223053	152.560000
492.316772	152.820000
492.410461	152.620000
492.504181	152.680000
492.597839	152.220000
492.691559	152.480000
492.785248	152.560000
492.878967	152.820000
492.972626	152.700000
493.066345	152.900000
493.160034	152.420000
493.253754	152.340000
493.347412	151.580000
493.441132	151.800000
493.534882	152.220000
493.628540	152.880000
493.722260	153.060000
493.815918	153.960000
493.909668	154.320000
494.003326	154.420000
494.097046	154.400000
494.190704	154.300000
494.284454	154.220000
494.378113	154.120000
494.471832	153.540000
494.565491	153.100000
494.659210	153.080000
494.752899	152.840000
494.846619	152.520000
494.940277	152.960000
495.033997	153.020000
495.127686	152.740000
495.221405	152.800000
495.315063	152.800000
495.408783	152.520000
495.502441	152.600000
495.596191	152.760000
495.689850	152.540000
495.783569	152.820000
495.877228	152.920000
495.970947	152.800000
496.064697	152.560000
496.158356	153.160000
496.252075	152.760000
496.345734	152.240000
496.439453	153.100000
496.533142	153.500000
496.626862	153.840000
496.720520	154.040000
496.814240	154.580000
496.907898	153.880000
497.001617	153.760000
497.095306	152.860000
497.189026	152.800000
497.282684	152.760000
497.376404	153.260000
497.470062	153.160000
497.563782	153.420000
497.657471	153.480000
497.751190	153.360000
497.844849	152.980000
497.938568	153.440000
498.032227	153.420000
498.125946	153.180000
498.219635	153.020000
498.313354	153.400000
498.407074	152.900000
498.500732	153.220000
498.594452	153.780000
498.688110	153.420000
498.781830	153.000000
498.875519	152.900000
498.969238	152.400000
499.062897	152.080000
499.156616	152.820000
499.250275	152.800000
499.343994	152.700000
499.437653	152.880000
499.531372	153.260000
499.625061	153.780000
499.718781	154.100000
499.812439	154.620000
499.906158	154.600000
499.999817	153.980000
500.093536	152.980000
500.187195	152.880000
500.280914	152.660000
500.374573	152.880000
500.468323	152.820000
500.561981	153.040000
500.655701	152.300000
500.749420	152.220000
500.843079	152.000000
500.936798	152.040000
501.030457	152.440000
501.124176	153.420000
501.217834	153.280000
501.311554	153.580000
501.405212	153.680000
501.498962	152.760000
501.592621	152.440000
501.686340	152.720000
501.779999	152.680000
501.873718	152.860000
501.967377	153.200000
502.061096	153.260000
502.154755	152.620000
502.248474	152.360000
502.342133	152.300000
502.435852	152.340000
502.529510	152.860000
502.623230	154.260000
502.716888	154.000000
502.810608	154.040000
502.904266	154.780000
502.997986	154.480000
503.091705	153.520000
503.185364	153.660000
503.279083	154.120000
503.372772	153.860000
503.466492	153.020000
503.560150	153.240000
503.653870	153.800000
503.747528	153.400000
503.841248	152.960000
503.934906	153.320000
504.028625	152.960000
504.122284	152.980000
504.216003	153.360000
504.309662	153.040000
504.403381	153.560000
504.497040	153.580000
504.590759	153.140000
504.684418	153.340000
504.778137	154.040000
504.871796	154.260000
504.965515	154.420000
505.059174	154.480000
505.152893	153.620000
505.246521	153.340000
505.340240	152.620000
505.433899	152.660000
505.527618	152.880000
505.621338	153.280000
505.714996	153.340000
505.808716	153.680000
505.902374	154.180000
505.996094	154.060000
506.089752	153.880000
506.183472	153.820000
506.277130	153.840000
506.370850	153.720000
506.464508	153.260000
506.558228	153.160000
506.651886	152.980000
506.745605	152.960000
506.839264	153.060000
506.932983	153.340000
507.026611	153.400000
507.120331	153.740000
507.213989	153.180000
507.307709	152.980000
507.401367	153.520000
507.495087	154.620000
507.588745	154.440000
507.682465	155.240000
507.776123	154.860000
507.869843	154.460000
507.963531	153.660000
508.057190	153.960000
508.150909	153.180000
508.244568	153.720000
508.338287	153.420000
508.431946	152.860000
508.525665	152.420000
508.619324	152.600000
508.713013	152.620000
508.806671	153.000000
508.900391	154.220000
508.994049	154.360000
509.087769	154.000000
509.181427	153.840000
509.275146	153.560000
509.368774	152.500000
509.462494	152.640000
509.556152	153.040000
509.649872	153.440000
509.743530	153.640000
509.837250	154.100000
509.930878	153.840000
510.024597	153.660000
510.118256	153.300000
510.211975	153.080000
510.305695	152.840000
510.399353	153.340000
510.493042	154.000000
510.586700	154.080000
510.680420	154.860000
510.774078	154.520000
510.867798	154.680000
510.961426	153.740000
511.055145	153.680000
511.148804	152.940000
511.242523	153.660000
511.336151	153.360000
511.429871	153.880000
511.523529	153.360000
511.617249	153.320000
511.710876	153.000000
511.804596	152.720000
511.898254	152.720000
511.991974	153.400000
512.085632	153.540000
512.179321	153.380000
512.272949	153.860000
512.366699	153.960000
512.460327	153.600000
512.554077	154.500000
512.647766	154.520000
512.741394	154.180000
512.835144	154.920000
512.928772	154.620000
513.022461	154.000000
513.116150	153.660000
513.209839	154.000000
513.303467	152.980000
513.397217	152.960000
513.490845	152.740000
513.584595	153.120000
513.678223	152.360000
513.771912	151.900000
513.865601	152.140000
513.959290	152.000000
514.052917	152.060000
514.146667	153.320000
514.240295	153.960000
514.333984	154.180000
514.427673	154.140000
514.521362	154.800000
514.614990	153.480000
514.708740	153.680000
514.802368	153.740000
514.896057	153.940000
514.989746	154.060000
515.083435	154.400000
515.177124	154.560000
515.270752	153.940000
515.364502	153.740000
515.458130	153.400000
515.551819	153.020000
515.645508	152.720000
515.739197	153.140000
515.832825	153.200000
515.926575	152.560000
516.020203	153.240000
516.113892	153.640000
516.207520	153.640000
516.301270	153.900000
516.394897	154.240000
516.488586	154.240000
516.582275	154.020000
516.675964	153.360000
516.769592	153.040000
516.863281	153.580000
516.956970	153.960000
517.050659	153.620000
517.144287	154.300000
517.238037	154.620000
517.331665	153.900000
517.425354	153.180000
517.519043	153.000000
517.612732	153.160000
517.706421	152.640000
517.800049	152.480000
517.893738	152.480000
517.987427	152.600000
518.081116	152.420000
518.174744	152.020000
518.268433	152.500000
518.362122	153.180000
518.455811	153.420000
518.549438	154.060000
518.643127	155.380000
518.736816	154.840000
518.830505	154.080000
518.924133	153.740000
519.017822	153.400000
519.111511	153.060000
519.205200	153.600000
519.298828	154.000000
519.392517	153.880000
519.486206	153.920000
519.579895	153.900000
519.673523	153.620000
519.767212	153.540000
519.860901	154.280000
519.954590	154.100000
520.048279	153.600000
520.141907	153.720000
520.235596	154.320000
520.329224	153.960000
520.422974	153.740000
520.516602	153.800000
520.610291	153.160000
520.703918	152.760000
520.797607	152.520000
520.891296	152.540000
520.984985	152.700000
521.078613	153.700000
521.172302	153.020000
521.265930	154.040000
521.359680	154.420000
521.453308	154.280000
521.546997	153.840000
521.640625	154.080000
521.734314	153.180000
521.827942	152.820000
521.921692	153.140000
522.015320	153.040000
522.109009	153.360000
522.202698	153.560000
522.296326	153.500000
522.390015	153.640000
522.483704	153.960000
522.577393	153.720000
522.671021	153.300000
522.764709	152.900000
522.858337	153.080000
522.952026	152.820000
523.045654	153.380000
523.139404	154.080000
523.233032	154.600000
523.326721	154.160000
523.420349	154.280000
523.514038	153.580000
523.607666	153.760000
523.701355	153.240000
523.795044	153.340000
523.888733	153.520000
523.982361	153.960000
524.076050	153.760000
524.169678	154.620000
524.263367	154.220000
524.356995	153.640000
524.450684	153.080000
524.544373	152.360000
524.638062	152.040000
524.731750	152.700000
524.825378	152.900000
524.919067	152.940000
525.012695	153.420000
525.106384	153.140000
525.200012	152.760000
525.293701	152.600000
525.387329	153.180000
525.481018	153.280000
525.574646	153.420000
525.668396	153.440000
525.762024	153.880000
525.855713	153.740000
525.949341	153.160000
526.043030	153.320000
526.136658	153.180000
526.230347	152.680000
526.323975	152.260000
526.417664	152.420000
526.511292	152.460000
526.604980	152.640000
526.698608	152.680000
526.792297	152.540000
526.885925	152.860000
526.979614	152.800000
527.073303	152.760000
527.166931	152.920000
527.260620	153.600000
527.354309	153.840000
527.447998	153.820000
527.541626	153.560000
527.635315	153.700000
527.728943	153.940000
527.822632	154.000000
527.916260	153.860000
528.009949	154.220000
528.103577	153.760000
528.197266	153.180000
528.290894	153.100000
528.384583	153.240000
528.478210	153.080000
528.571899	153.420000
528.665527	153.720000
528.759216	153.620000
528.852844	154.200000
528.946533	153.900000
529.040161	153.800000
529.133850	153.440000
529.227478	153.460000
529.321167	153.180000
529.414856	153.920000
529.508484	154.840000
529.602173	154.500000
529.695801	154.680000
529.789490	154.260000
529.883057	153.980000
529.976746	153.620000
530.070374	154.340000
530.164062	153.800000
530.257690	154.520000
530.351379	154.480000
530.445007	154.120000
530.538696	153.260000
530.632324	154.000000
530.726013	153.480000
530.819641	153.580000
530.913330	153.680000
531.006958	154.020000
531.100647	153.640000
531.194275	153.380000
531.287964	153.040000
531.381592	152.660000
531.475220	152.840000
531.568848	152.920000
531.662537	153.080000
531.756226	153.620000
531.849854	153.940000
531.943542	154.240000
532.037170	153.440000
532.130859	153.700000
532.224487	153.420000
532.318176	153.060000
532.411804	153.180000
532.505432	153.900000
532.599060	153.660000
532.692749	153.300000
532.786377	154.000000
532.880066	153.220000
532.973694	152.600000
533.067383	152.620000
533.161011	153.040000
533.254639	152.480000
533.348267	152.820000
533.441956	153.340000
533.535583	152.920000
533.629272	152.760000
533.722900	152.440000
533.816589	152.380000
533.910156	152.460000
534.003845	152.320000
534.097534	152.420000
534.191162	153.200000
534.284851	153.560000
534.378479	153.220000
534.472107	153.620000
534.565735	153.300000
534.659424	153.360000
534.753052	153.280000
534.846741	153.180000
534.940369	154.240000
535.033997	154.680000
535.127625	154.460000
535.221313	154.820000
535.314941	154.600000
535.408630	153.380000
535.502197	153.620000
535.595886	153.680000
535.689514	153.120000
535.783203	153.720000
535.876831	154.360000
535.970459	153.960000
536.064087	153.400000
536.157776	153.400000
536.251404	153.380000
536.345093	152.760000
536.438721	152.680000
536.532349	153.120000
536.626038	153.240000
536.719666	153.340000
536.813293	153.160000
536.906921	153.340000
537.000610	153.900000
537.094238	153.820000
537.187866	153.680000
537.281494	154.000000
537.375183	153.900000
537.468811	152.980000
537.562439	153.300000
537.656067	153.340000
537.749756	153.560000
537.843384	154.420000
537.937012	154.700000
538.030640	154.120000
538.124329	154.080000
538.217896	154.380000
538.311584	153.540000
538.405212	153.380000
538.498901	153.740000
538.592468	154.200000
538.686157	153.280000
538.779785	152.680000
538.873413	152.600000
538.967102	152.240000
539.060730	151.500000
539.154358	152.200000
539.247986	153.080000
539.341675	153.500000
539.435242	153.800000
539.528931	154.200000
539.622559	153.680000
539.716187	153.920000
539.809814	153.640000
539.903503	153.180000
539.997070	152.740000
540.090759	152.860000
540.184387	152.340000
540.278015	152.920000
540.371643	153.540000
540.465332	154.260000
540.558899	154.380000
540.652588	154.680000
540.746216	154.060000
540.839844	154.020000
540.933472	153.520000
541.027100	153.500000
541.120728	153.180000
541.214417	153.320000
541.308044	153.600000
541.401672	153.480000
541.495300	153.300000
541.588928	153.560000
541.682617	153.460000
541.776184	153.060000
541.869873	153.480000
541.963440	153.660000
542.057129	153.220000
542.150757	153.480000
542.244385	152.760000
542.338013	152.640000
542.431641	152.400000
542.525269	152.740000
542.618958	153.060000
542.712524	154.000000
542.806213	153.780000
542.899780	154.240000
542.993469	153.700000
543.087036	153.260000
543.180725	152.600000
543.274292	152.860000
543.367981	152.860000
543.461548	153.480000
543.555237	153.580000
543.648926	154.280000
543.742493	154.800000
543.836182	154.660000
543.929749	154.360000
544.023437	154.300000
544.117004	154.060000
544.210693	153.600000
544.304260	153.660000
544.397949	153.720000
544.491516	153.460000
544.585205	153.460000
544.678772	153.120000
544.772461	153.340000
544.866028	153.020000
544.959717	153.460000
545.053284	153.300000
545.146973	153.660000
545.240540	153.460000
545.334229	154.420000
545.427795	154.380000
545.521423	154.540000
545.615051	154.340000
545.708679	154.760000
545.802307	154.560000
545.895935	154.720000
545.989624	155.300000
546.083191	155.280000
546.176880	154.920000
546.270447	154.240000
546.364136	154.520000
546.457703	153.880000
546.551331	153.740000
546.644958	153.960000
546.738586	154.460000
546.832214	153.880000
546.925842	154.140000
547.019409	154.580000
547.113098	154.040000
547.206665	153.380000
547.300354	153.580000
547.393921	153.420000
547.487549	153.440000
547.581177	153.220000
547.674805	153.540000
547.768433	152.800000
547.862061	152.800000
547.955627	152.320000
548.049316	153.440000
548.142883	154.020000
548.236572	154.760000
548.330139	154.640000
548.423767	154.500000
548.517456	153.900000
548.611023	153.700000
548.704651	153.120000
548.798279	153.580000
548.891907	154.280000
548.985474	154.120000
549.079163	154.120000
549.172729	154.000000
549.266357	153.320000
549.359985	153.000000
549.453613	152.400000
549.547180	151.900000
549.640869	152.780000
549.734436	152.560000
549.828064	152.980000
549.921631	153.280000
550.015320	153.280000
550.108887	153.360000
550.202515	153.700000
550.296143	153.180000
550.389771	153.280000
550.483337	153.440000
550.576965	152.920000
550.670593	153.540000
550.764221	153.720000
550.857849	153.600000
550.951477	153.060000
551.045105	152.760000
551.138672	152.600000
551.232300	152.140000
551.325928	152.720000
551.419556	153.100000
551.513123	153.060000
551.606750	152.460000
551.700378	152.560000
551.794006	152.220000
551.887573	152.320000
551.981201	152.820000
552.074768	153.120000
552.168457	152.920000
552.262024	153.720000
552.355652	153.760000
552.449219	154.400000
552.542847	154.220000
552.636475	154.020000
552.730103	152.980000
552.823669	152.780000
552.917297	151.780000
553.010864	152.040000
553.104553	152.660000
553.198181	152.460000
553.291748	152.820000
553.385376	153.300000
553.478943	153.160000
553.572571	153.340000
553.666199	154.020000
553.759827	153.760000
553.853394	153.440000
553.947021	153.240000
554.040588	153.220000
554.134216	153.220000
554.227783	154.020000
554.321411	154.520000
554.415039	154.120000
554.508667	153.820000
554.602234	154.000000
554.695862	153.000000
554.789429	152.860000
554.883057	153.280000
554.976624	153.240000
555.070251	152.860000
555.163818	152.960000
555.257507	152.820000
555.351074	153.040000
555.444702	154.340000
555.538330	153.760000
555.631897	154.120000
555.725525	154.080000
555.819092	153.940000
555.912720	152.540000
556.006287	153.820000
556.099915	153.620000
556.193481	153.780000
556.287109	154.120000
556.380676	153.920000
556.474304	153.600000
556.567871	154.040000
556.661499	153.420000
556.755066	153.020000
556.848694	153.440000
556.942261	153.120000
557.035889	152.920000
557.129517	153.200000
557.223145	153.980000
557.316711	154.160000
557.410339	154.340000
557.503906	154.020000
557.597473	154.500000
557.691040	153.860000
557.784668	153.620000
557.878296	153.440000
557.971863	153.720000
558.065491	153.580000
558.159058	153.180000
558.252686	154.400000
558.346252	155.140000
558.439880	154.740000
558.533447	154.260000
558.627075	154.520000
558.720642	153.320000
558.814270	152.700000
558.907837	153.100000
559.001465	153.000000
559.095032	153.560000
559.188660	154.080000
559.282227	153.480000
559.375854	153.740000
559.469360	153.880000
559.562988	154.160000
559.656555	154.000000
559.750183	154.760000
559.843750	154.960000
559.937378	154.860000
560.030945	154.460000
560.124573	0.000000
560.218140	0.000000
560.311707	0.000000
560.405334	0.000000
560.498901	0.000000
560.592529	0.000000
560.686096	0.000000
560.779724	0.000000
560.873291	0.000000
560.966858	0.000000
561.060425	0.000000
561.154053	0.000000
561.247620	0.000000
561.341248	0.000000
561.434814	0.000000
561.528381	0.000000
561.621948	0.000000
561.715576	0.000000
561.809143	0.000000
561.902771	0.000000
561.996277	0.000000
562.089905	0.000000
562.183472	0.000000
562.277100	0.000000
