Model Number: SPM-002-B   
Serial Number: 70087108
Firmware Version: 004.15.4
Exposure Time: 100000.000000us
Data Taken on: 15-01-2021 16:35:08.195
Wavelength	Amplitude
221.570786	0.000000
221.663406	0.000000
221.756027	0.000000
221.848648	0.000000
221.941269	0.000000
222.033905	0.000000
222.126526	0.000000
222.219162	0.000000
222.311798	0.000000
222.404419	0.000000
222.497055	0.000000
222.589676	0.000000
222.682312	0.000000
222.774933	0.000000
222.867569	0.000000
222.960205	0.000000
223.052841	0.000000
223.145462	0.000000
223.238098	0.000000
223.330734	0.000000
223.423386	0.000000
223.516022	0.000000
223.608658	0.000000
223.701309	0.000000
223.793945	0.000000
223.886581	0.000000
223.979218	0.000000
224.071869	0.000000
224.164505	0.000000
224.257156	0.000000
224.349792	0.000000
224.442444	0.000000
224.535095	0.000000
224.627747	0.000000
224.720398	0.000000
224.813034	0.000000
224.905685	0.000000
224.998337	152.480000
225.090988	152.120000
225.183640	152.400000
225.276291	152.200000
225.368942	152.900000
225.461594	153.640000
225.554245	153.920000
225.646912	153.840000
225.739578	154.220000
225.832230	154.080000
225.924896	153.060000
226.017548	153.240000
226.110199	153.580000
226.202866	153.080000
226.295532	153.160000
226.388184	153.040000
226.480850	152.400000
226.573517	151.800000
226.666168	151.780000
226.758835	151.920000
226.851501	152.720000
226.944183	153.060000
227.036850	152.860000
227.129517	153.320000
227.222183	153.420000
227.314850	153.100000
227.407516	153.420000
227.500198	154.780000
227.592865	154.120000
227.685532	153.460000
227.778214	153.440000
227.870880	153.760000
227.963562	153.400000
228.056229	153.960000
228.148926	154.440000
228.241592	155.520000
228.334274	154.900000
228.426956	154.700000
228.519638	154.720000
228.612305	154.100000
228.704987	153.320000
228.797668	153.340000
228.890350	152.960000
228.983032	152.260000
229.075714	152.920000
229.168396	152.700000
229.261108	152.060000
229.353790	152.080000
229.446472	152.520000
229.539169	152.420000
229.631851	152.040000
229.724533	152.540000
229.817230	153.080000
229.909912	154.140000
230.002609	154.120000
230.095306	154.180000
230.187988	154.500000
230.280685	154.340000
230.373383	152.980000
230.466095	152.920000
230.558792	153.420000
230.651474	153.200000
230.744171	152.900000
230.836868	153.000000
230.929581	153.040000
231.022278	152.880000
231.114975	153.140000
231.207672	153.100000
231.300369	153.780000
231.393082	153.920000
231.485779	153.900000
231.578506	153.520000
231.671204	153.760000
231.763916	153.260000
231.856613	153.100000
231.949326	153.020000
232.042023	153.140000
232.134735	153.080000
232.227448	152.760000
232.320160	153.080000
232.412872	153.020000
232.505585	153.920000
232.598297	154.060000
232.691010	154.220000
232.783722	153.660000
232.876450	154.500000
232.969162	153.620000
233.061874	153.260000
233.154587	152.960000
233.247314	153.400000
233.340027	152.360000
233.432739	153.100000
233.525467	153.200000
233.618179	153.520000
233.710907	153.220000
233.803635	153.760000
233.896347	153.100000
233.989090	153.700000
234.081818	153.860000
234.174545	153.820000
234.267258	153.880000
234.359985	154.000000
234.452713	153.440000
234.545441	153.320000
234.638168	153.560000
234.730896	153.600000
234.823639	153.420000
234.916367	153.780000
235.009094	153.980000
235.101822	153.800000
235.194580	153.620000
235.287308	153.740000
235.380051	153.180000
235.472778	153.420000
235.565521	153.760000
235.658249	153.380000
235.750992	153.520000
235.843719	153.700000
235.936462	153.780000
236.029205	153.340000
236.121948	153.240000
236.214691	153.620000
236.307449	154.220000
236.400192	153.860000
236.492935	153.760000
236.585678	154.300000
236.678421	153.900000
236.771164	153.720000
236.863907	154.040000
236.956665	154.140000
237.049408	155.600000
237.142151	154.880000
237.234909	155.520000
237.327652	155.440000
237.420410	155.520000
237.513153	154.180000
237.605927	154.840000
237.698669	153.940000
237.791428	153.320000
237.884186	153.660000
237.976944	153.180000
238.069702	152.960000
238.162445	152.740000
238.255203	153.140000
238.347961	153.380000
238.440720	153.660000
238.533478	153.680000
238.626266	153.260000
238.719025	153.440000
238.811783	152.800000
238.904541	152.440000
238.997314	152.440000
239.090073	152.260000
239.182831	152.240000
239.275604	153.360000
239.368362	153.320000
239.461136	153.620000
239.553909	154.040000
239.646667	153.540000
239.739441	152.760000
239.832214	153.200000
239.925003	153.240000
240.017761	153.820000
240.110535	154.480000
240.203308	153.940000
240.296082	154.180000
240.388855	153.880000
240.481628	154.000000
240.574417	153.900000
240.667191	154.460000
240.759964	153.860000
240.852737	153.760000
240.945526	153.160000
241.038315	153.080000
241.131088	153.160000
241.223877	153.560000
241.316650	153.460000
241.409439	154.200000
241.502228	153.980000
241.595001	154.460000
241.687790	154.140000
241.780579	154.380000
241.873367	154.220000
241.966141	154.480000
242.058929	153.460000
242.151718	153.980000
242.244507	154.100000
242.337311	153.220000
242.430099	153.700000
242.522903	154.080000
242.615692	153.340000
242.708481	153.280000
242.801270	154.040000
242.894073	153.700000
242.986862	153.760000
243.079651	154.580000
243.172455	154.400000
243.265244	154.660000
243.358063	153.880000
243.450867	154.360000
243.543655	154.180000
243.636459	154.260000
243.729263	154.020000
243.822067	154.520000
243.914856	154.380000
244.007660	154.300000
244.100464	154.180000
244.193268	153.660000
244.286072	153.360000
244.378876	152.620000
244.471680	152.260000
244.564499	152.580000
244.657318	153.560000
244.750122	153.940000
244.842926	153.820000
244.935745	154.380000
245.028549	154.040000
245.121368	153.340000
245.214172	153.020000
245.306992	153.640000
245.399796	152.980000
245.492615	153.080000
245.585434	152.780000
245.678253	153.040000
245.771072	152.860000
245.863892	153.400000
245.956711	153.760000
246.049530	153.980000
246.142349	153.880000
246.235168	153.900000
246.327988	154.260000
246.420807	153.860000
246.513626	153.840000
246.606445	153.860000
246.699280	153.900000
246.792099	153.340000
246.884918	153.100000
246.977753	152.800000
247.070587	152.960000
247.163422	153.020000
247.256241	152.960000
247.349075	153.540000
247.441895	153.880000
247.534729	153.740000
247.627563	153.480000
247.720383	154.200000
247.813217	154.000000
247.906052	154.160000
247.998886	154.160000
248.091736	154.420000
248.184570	153.780000
248.277405	153.440000
248.370239	153.900000
248.463074	154.820000
248.555908	154.860000
248.648743	154.940000
248.741592	155.400000
248.834427	154.740000
248.927261	153.440000
249.020111	154.020000
249.112946	154.620000
249.205795	153.820000
249.298630	153.960000
249.391495	154.280000
249.484344	153.600000
249.577179	153.540000
249.670029	154.220000
249.762878	154.540000
249.855728	154.740000
249.948563	154.980000
250.041412	154.080000
250.134262	154.180000
250.227112	154.160000
250.319962	154.040000
250.412827	153.860000
250.505692	153.580000
250.598541	153.420000
250.691391	153.240000
250.784241	153.240000
250.877106	153.200000
250.969955	153.480000
251.062805	153.980000
251.155670	154.460000
251.248520	154.360000
251.341385	154.760000
251.434235	154.600000
251.527100	154.320000
251.619965	153.760000
251.712814	154.560000
251.805695	154.300000
251.898560	154.680000
251.991425	154.640000
252.084290	154.760000
252.177155	153.960000
252.270020	153.820000
252.362885	153.740000
252.455750	153.580000
252.548615	153.280000
252.641479	153.240000
252.734360	152.880000
252.827240	152.800000
252.920105	153.140000
253.012970	152.660000
253.105850	152.680000
253.198715	152.860000
253.291595	152.960000
253.384460	152.340000
253.477341	152.800000
253.570221	152.680000
253.663086	152.480000
253.755966	153.300000
253.848846	153.780000
253.941727	153.940000
254.034592	154.160000
254.127472	153.720000
254.220367	153.300000
254.313248	153.440000
254.406128	153.100000
254.499008	153.240000
254.591904	154.420000
254.684784	154.740000
254.777664	154.280000
254.870544	154.020000
254.963440	153.780000
255.056335	153.520000
255.149216	153.100000
255.242111	153.560000
255.334991	154.200000
255.427887	154.360000
255.520767	154.200000
255.613663	154.240000
255.706558	153.500000
255.799438	153.140000
255.892334	153.120000
255.985229	153.280000
256.078125	153.140000
256.171021	153.480000
256.263916	154.160000
256.356812	154.380000
256.449707	154.120000
256.542603	154.060000
256.635498	154.560000
256.728394	154.260000
256.821289	153.640000
256.914215	153.980000
257.007080	154.060000
257.100006	154.020000
257.192932	154.060000
257.285828	154.500000
257.378723	153.960000
257.471619	153.700000
257.564545	153.100000
257.657440	153.480000
257.750336	153.800000
257.843262	153.860000
257.936157	155.120000
258.029053	155.660000
258.121979	155.360000
258.214874	154.900000
258.307800	154.760000
258.400696	153.520000
258.493622	153.220000
258.586517	152.460000
258.679443	152.920000
258.772339	152.660000
258.865265	152.580000
258.958160	152.140000
259.051086	153.320000
259.144012	152.800000
259.236938	153.700000
259.329834	153.720000
259.422791	153.700000
259.515717	152.720000
259.608612	152.320000
259.701538	152.100000
259.794464	152.140000
259.887390	152.460000
259.980316	152.540000
260.073212	152.680000
260.166138	151.940000
260.259064	152.400000
260.351990	153.360000
260.444916	153.600000
260.537842	154.140000
260.630768	154.780000
260.723694	154.460000
260.816620	153.560000
260.909546	153.220000
261.002472	152.880000
261.095398	152.560000
261.188354	152.440000
261.281281	152.160000
261.374207	152.400000
261.467133	153.100000
261.560089	153.400000
261.653015	153.060000
261.745972	153.760000
261.838867	154.160000
261.931824	154.120000
262.024780	153.800000
262.117706	154.560000
262.210663	154.920000
262.303589	154.520000
262.396515	154.460000
262.489471	155.300000
262.582397	154.960000
262.675354	153.940000
262.768280	154.180000
262.861237	153.780000
262.954163	153.640000
263.047119	153.840000
263.140045	154.000000
263.233002	153.920000
263.325958	154.060000
263.418884	153.420000
263.511841	153.160000
263.604797	152.980000
263.697723	153.220000
263.790680	153.080000
263.883636	153.520000
263.976593	153.460000
264.069550	153.880000
264.162476	153.320000
264.255463	153.580000
264.348419	153.640000
264.441376	154.100000
264.534332	153.400000
264.627289	153.680000
264.720245	153.980000
264.813202	153.220000
264.906158	153.060000
264.999115	153.940000
265.092072	153.800000
265.185028	154.100000
265.277985	154.920000
265.370941	154.940000
265.463898	154.560000
265.556854	154.280000
265.649811	153.120000
265.742798	152.620000
265.835754	152.280000
265.928711	152.760000
266.021667	152.980000
266.114655	153.380000
266.207611	154.080000
266.300568	153.780000
266.393585	153.040000
266.486511	153.200000
266.579498	152.780000
266.672485	152.240000
266.765442	152.320000
266.858429	153.180000
266.951385	152.960000
267.044342	153.100000
267.137329	153.260000
267.230316	153.480000
267.323273	152.900000
267.416260	153.600000
267.509216	153.520000
267.602203	153.160000
267.695160	153.780000
267.788147	153.700000
267.881134	153.040000
267.974091	153.380000
268.067078	153.280000
268.160065	153.040000
268.253052	153.020000
268.346008	153.300000
268.438995	152.920000
268.531982	153.380000
268.624969	153.100000
268.717987	153.560000
268.810944	153.300000
268.903961	153.860000
268.996948	153.400000
269.089905	153.680000
269.182892	153.680000
269.275879	154.080000
269.368866	153.380000
269.461853	153.680000
269.554871	153.720000
269.647858	153.460000
269.740845	153.640000
269.833832	154.120000
269.926819	153.600000
270.019806	153.780000
270.112793	153.320000
270.205811	153.080000
270.298798	152.800000
270.391785	153.480000
270.484772	153.060000
270.577789	153.600000
270.670776	153.260000
270.763763	153.280000
270.856750	153.300000
270.949768	152.980000
271.042786	152.780000
271.135773	152.840000
271.228790	153.260000
271.321808	152.800000
271.414795	152.440000
271.507782	152.440000
271.600800	152.400000
271.693817	152.500000
271.786804	153.120000
271.879822	153.540000
271.972809	153.420000
272.065826	153.860000
272.158844	153.280000
272.251831	153.660000
272.344849	153.780000
272.437866	153.460000
272.530853	153.520000
272.623871	153.840000
272.716888	152.480000
272.809906	152.800000
272.902893	153.000000
272.995911	152.160000
273.088928	151.820000
273.181946	152.420000
273.274963	152.040000
273.367981	152.100000
273.460999	152.540000
273.554047	153.040000
273.647003	153.740000
273.740051	153.780000
273.833069	154.300000
273.926086	154.340000
274.019135	154.020000
274.112152	153.620000
274.205170	153.840000
274.298187	153.880000
274.391205	153.720000
274.484222	153.860000
274.577240	153.780000
274.670258	153.480000
274.763306	153.000000
274.856323	153.440000
274.949341	153.640000
275.042358	153.740000
275.135406	153.720000
275.228424	154.000000
275.321442	153.840000
275.414490	153.480000
275.507507	153.620000
275.600525	154.040000
275.693573	153.720000
275.786591	153.080000
275.879669	153.220000
275.972656	152.840000
276.065735	152.520000
276.158752	153.140000
276.251801	154.060000
276.344818	154.080000
276.437866	154.200000
276.530884	153.860000
276.623932	153.020000
276.716980	153.100000
276.809998	153.080000
276.903046	153.140000
276.996094	154.460000
277.089111	155.340000
277.182159	155.620000
277.275208	155.180000
277.368256	155.380000
277.461304	154.740000
277.554321	153.760000
277.647369	153.420000
277.740417	153.840000
277.833466	153.420000
277.926514	153.360000
278.019562	154.400000
278.112610	153.600000
278.205688	153.520000
278.298706	153.720000
278.391785	153.360000
278.484833	152.660000
278.577881	152.920000
278.670929	153.620000
278.763977	153.740000
278.857025	154.420000
278.950073	154.340000
279.043121	154.180000
279.136169	153.780000
279.229248	153.300000
279.322296	153.280000
279.415344	153.280000
279.508392	153.100000
279.601440	152.680000
279.694519	152.900000
279.787567	152.400000
279.880615	152.320000
279.973694	152.620000
280.066742	152.960000
280.159790	152.840000
280.252869	152.740000
280.345917	152.840000
280.438995	152.720000
280.532074	152.640000
280.625122	152.740000
280.718201	153.740000
280.811279	153.860000
280.904327	153.940000
280.997406	153.940000
281.090454	154.100000
281.183533	153.120000
281.276581	153.140000
281.369659	153.040000
281.462738	152.780000
281.555786	153.000000
281.648865	153.020000
281.741943	152.680000
281.835022	153.560000
281.928070	153.500000
282.021149	153.120000
282.114227	153.320000
282.207306	153.420000
282.300385	153.280000
282.393433	153.680000
282.486511	153.960000
282.579590	154.240000
282.672668	154.920000
282.765747	154.100000
282.858856	153.580000
282.951904	153.500000
283.045013	153.680000
283.138062	153.600000
283.231171	154.040000
283.324249	154.840000
283.417328	155.060000
283.510406	154.540000
283.603485	154.000000
283.696564	153.820000
283.789642	153.540000
283.882751	153.120000
283.975830	153.680000
284.068909	153.620000
284.161987	154.180000
284.255066	153.440000
284.348175	153.560000
284.441254	153.060000
284.534332	153.720000
284.627441	153.080000
284.720520	153.140000
284.813599	153.220000
284.906708	153.380000
284.999786	152.460000
285.092896	152.200000
285.185974	153.640000
285.279053	153.040000
285.372192	152.980000
285.465240	153.980000
285.558380	154.220000
285.651459	153.480000
285.744568	154.360000
285.837677	154.060000
285.930756	153.900000
286.023865	153.640000
286.116943	153.140000
286.210052	153.100000
286.303162	153.220000
286.396240	153.120000
286.489349	153.180000
286.582458	153.640000
286.675568	153.200000
286.768646	153.360000
286.861755	153.500000
286.954865	154.260000
287.047974	153.700000
287.141083	153.840000
287.234161	153.760000
287.327271	153.380000
287.420380	153.420000
287.513519	153.640000
287.606598	153.580000
287.699738	153.840000
287.792816	154.040000
287.885956	153.720000
287.979034	153.720000
288.072174	153.700000
288.165283	153.260000
288.258392	153.540000
288.351501	153.200000
288.444611	153.380000
288.537720	153.760000
288.630859	154.140000
288.723969	154.020000
288.817078	154.760000
288.910187	155.020000
289.003296	154.300000
289.096436	153.820000
289.189545	153.600000
289.282654	152.600000
289.375763	152.580000
289.468903	153.200000
289.562012	153.380000
289.655121	153.300000
289.748260	153.960000
289.841400	154.160000
289.934509	153.820000
290.027649	154.080000
290.120728	154.060000
290.213898	153.960000
290.306976	153.480000
290.400146	153.820000
290.493256	153.200000
290.586395	153.560000
290.679535	154.020000
290.772644	154.200000
290.865784	153.400000
290.958893	153.460000
291.052032	153.020000
291.145172	152.820000
291.238281	152.260000
291.331421	152.640000
291.424561	153.160000
291.517670	153.080000
291.610809	153.100000
291.703949	153.420000
291.797089	153.980000
291.890228	153.500000
291.983337	153.540000
292.076477	153.240000
292.169617	153.460000
292.262756	152.980000
292.355927	152.860000
292.449036	152.680000
292.542206	152.840000
292.635315	152.820000
292.728485	153.140000
292.821625	152.940000
292.914764	154.260000
293.007904	154.220000
293.101044	154.480000
293.194183	154.200000
293.287323	154.640000
293.380463	153.820000
293.473602	153.700000
293.566742	153.460000
293.659882	154.020000
293.753021	154.160000
293.846191	154.040000
293.939331	154.020000
294.032471	153.720000
294.125610	153.040000
294.218781	153.600000
294.311920	154.120000
294.405060	154.100000
294.498230	154.240000
294.591370	154.460000
294.684540	153.440000
294.777679	152.640000
294.870850	152.960000
294.963959	152.860000
295.057159	152.800000
295.150299	153.580000
295.243469	153.640000
295.336609	153.060000
295.429779	153.120000
295.522919	153.500000
295.616089	153.180000
295.709229	153.840000
295.802399	153.860000
295.895569	153.780000
295.988708	153.400000
296.081879	153.760000
296.175018	152.940000
296.268188	153.260000
296.361359	153.800000
296.454529	154.020000
296.547668	153.560000
296.640839	154.140000
296.734009	153.620000
296.827179	153.540000
296.920319	153.520000
297.013519	153.300000
297.106659	153.300000
297.199860	153.620000
297.292999	153.600000
297.386200	153.180000
297.479309	153.200000
297.572510	153.160000
297.665680	153.000000
297.758850	152.680000
297.852020	152.680000
297.945190	152.700000
298.038361	152.300000
298.131531	152.980000
298.224701	153.160000
298.317871	153.000000
298.411072	152.740000
298.504242	152.600000
298.597412	152.360000
298.690582	152.440000
298.783752	152.560000
298.876923	153.280000
298.970093	153.400000
299.063293	153.660000
299.156464	153.940000
299.249634	154.500000
299.342834	154.380000
299.436005	155.060000
299.529205	154.680000
299.622345	154.340000
299.715576	153.320000
299.808716	152.760000
299.901917	152.480000
299.995117	152.700000
300.088287	152.880000
300.181488	153.260000
300.274658	153.420000
300.367828	153.420000
300.461029	153.420000
300.554199	153.620000
300.647400	153.720000
300.740601	154.540000
300.833771	153.960000
300.926971	154.360000
301.020142	154.000000
301.113342	154.060000
301.206512	153.920000
301.299713	154.320000
301.392914	153.680000
301.486084	154.100000
301.579285	154.120000
301.672516	154.340000
301.765686	154.440000
301.858887	154.560000
301.952057	154.080000
302.045288	154.520000
302.138458	153.960000
302.231659	153.920000
302.324860	153.940000
302.418060	153.680000
302.511261	153.320000
302.604462	153.840000
302.697662	153.500000
302.790863	153.220000
302.884064	153.160000
302.977264	153.060000
303.070465	152.840000
303.163666	153.900000
303.256866	154.380000
303.350067	154.680000
303.443268	155.000000
303.536469	155.080000
303.629669	154.120000
303.722870	153.980000
303.816071	153.760000
303.909271	153.220000
304.002472	152.460000
304.095673	152.280000
304.188934	151.680000
304.282104	152.780000
304.375336	153.020000
304.468506	153.020000
304.561768	153.000000
304.654968	153.540000
304.748169	152.840000
304.841370	152.680000
304.934601	153.380000
305.027802	153.340000
305.121002	152.860000
305.214233	152.680000
305.307434	152.880000
305.400665	153.360000
305.493866	153.520000
305.587097	154.080000
305.680298	153.920000
305.773499	154.120000
305.866730	153.580000
305.959930	154.020000
306.053162	154.260000
306.146393	154.180000
306.239594	153.660000
306.332825	153.440000
306.426025	153.720000
306.519287	153.160000
306.612488	153.340000
306.705719	153.480000
306.798920	154.040000
306.892181	153.180000
306.985352	152.880000
307.078613	152.380000
307.171844	152.720000
307.265045	151.920000
307.358276	151.920000
307.451508	152.680000
307.544739	153.440000
307.637970	153.400000
307.731201	153.280000
307.824402	154.180000
307.917633	154.240000
308.010864	154.560000
308.104095	154.640000
308.197327	155.200000
308.290558	154.960000
308.383789	154.620000
308.477020	154.280000
308.570251	153.800000
308.663483	153.320000
308.756714	152.820000
308.849976	152.880000
308.943176	153.240000
309.036438	152.860000
309.129639	153.080000
309.222900	153.340000
309.316101	153.080000
309.409393	152.300000
309.502625	152.520000
309.595856	152.300000
309.689087	152.620000
309.782318	152.860000
309.875580	153.300000
309.968811	153.640000
310.062042	153.460000
310.155273	152.960000
310.248535	153.160000
310.341766	152.940000
310.434998	152.600000
310.528259	153.020000
310.621490	153.420000
310.714722	152.800000
310.807983	152.960000
310.901215	153.160000
310.994476	153.080000
311.087708	152.700000
311.181000	153.000000
311.274200	152.620000
311.367462	152.860000
311.460693	152.380000
311.553986	153.180000
311.647186	153.300000
311.740479	153.780000
311.833710	153.320000
311.926971	153.340000
312.020203	152.360000
312.113464	152.320000
312.206726	151.620000
312.299957	151.940000
312.393219	152.720000
312.486481	153.120000
312.579712	152.660000
312.672974	152.940000
312.766235	152.740000
312.859497	152.420000
312.952759	152.200000
313.045990	153.180000
313.139252	152.660000
313.232513	153.120000
313.325775	153.060000
313.419037	152.840000
313.512299	151.900000
313.605530	152.780000
313.698822	152.400000
313.792053	152.560000
313.885345	152.420000
313.978577	152.780000
314.071869	152.500000
314.165131	152.860000
314.258392	153.200000
314.351654	153.500000
314.444916	153.080000
314.538177	153.380000
314.631439	153.560000
314.724701	153.220000
314.817993	153.100000
314.911255	153.860000
315.004517	153.340000
315.097778	153.060000
315.191040	153.680000
315.284302	154.020000
315.377594	153.400000
315.470856	153.740000
315.564117	153.360000
315.657379	152.800000
315.750671	152.440000
315.843933	152.980000
315.937195	152.320000
316.030518	152.280000
316.123749	152.080000
316.217041	153.020000
316.310303	152.860000
316.403595	153.400000
316.496857	153.680000
316.590149	154.240000
316.683411	153.240000
316.776703	153.020000
316.869965	153.000000
316.963257	152.780000
317.056519	151.700000
317.149811	151.760000
317.243073	151.660000
317.336365	151.900000
317.429626	152.420000
317.522919	153.360000
317.616180	153.540000
317.709473	153.200000
317.802765	153.020000
317.896027	152.560000
317.989319	152.840000
318.082611	152.560000
318.175873	152.980000
318.269165	152.920000
318.362488	152.860000
318.455750	152.140000
318.549042	152.680000
318.642303	152.980000
318.735626	152.560000
318.828888	152.920000
318.922211	152.700000
319.015472	153.120000
319.108765	152.300000
319.202057	152.160000
319.295349	152.360000
319.388641	152.700000
319.481934	152.340000
319.575226	152.600000
319.668518	153.440000
319.761810	153.600000
319.855103	153.400000
319.948395	153.260000
320.041687	153.620000
320.134979	153.260000
320.228271	152.860000
320.321564	152.700000
320.414856	152.680000
320.508148	152.100000
320.601440	151.960000
320.694763	151.780000
320.788025	152.760000
320.881348	152.980000
320.974640	153.460000
321.067963	153.120000
321.161224	153.320000
321.254547	152.360000
321.347839	152.800000
321.441162	152.340000
321.534454	152.680000
321.627747	152.380000
321.721069	153.120000
321.814362	152.860000
321.907654	153.120000
322.000946	153.060000
322.094269	153.860000
322.187561	153.500000
322.280884	153.780000
322.374176	154.120000
322.467468	154.640000
322.560791	154.260000
322.654083	154.420000
322.747406	153.940000
322.840698	154.060000
322.934021	154.020000
323.027344	154.400000
323.120636	154.320000
323.213959	154.320000
323.307251	153.900000
323.400574	153.720000
323.493866	152.900000
323.587219	153.040000
323.680511	153.180000
323.773834	153.380000
323.867157	153.380000
323.960449	153.860000
324.053772	153.640000
324.147095	153.860000
324.240387	154.260000
324.333710	154.200000
324.427032	154.180000
324.520355	153.940000
324.613647	153.340000
324.706970	152.940000
324.800293	153.180000
324.893616	153.420000
324.986938	153.920000
325.080231	154.060000
325.173553	154.600000
325.266876	155.040000
325.360199	154.680000
325.453522	154.280000
325.546875	154.000000
325.640167	153.820000
325.733521	153.700000
325.826813	154.200000
325.920166	153.960000
326.013489	153.760000
326.106812	152.900000
326.200134	152.320000
326.293457	151.500000
326.386780	151.780000
326.480103	152.060000
326.573425	152.260000
326.666748	152.560000
326.760071	152.780000
326.853424	152.820000
326.946747	152.660000
327.040070	153.160000
327.133392	152.560000
327.226715	151.900000
327.320068	151.520000
327.413391	152.160000
327.506714	151.500000
327.600037	151.800000
327.693390	152.240000
327.786713	152.240000
327.880066	152.300000
327.973358	152.900000
328.066742	153.480000
328.160034	153.800000
328.253418	154.680000
328.346710	154.080000
328.440063	153.760000
328.533417	153.140000
328.626740	153.480000
328.720093	152.860000
328.813416	152.900000
328.906769	153.080000
329.000092	153.340000
329.093445	153.100000
329.186768	153.120000
329.280121	153.580000
329.373444	153.960000
329.466797	154.120000
329.560120	154.000000
329.653473	154.200000
329.746796	153.960000
329.840149	153.480000
329.933502	153.080000
330.026825	153.240000
330.120178	152.960000
330.213562	152.720000
330.306854	152.900000
330.400238	153.180000
330.493561	152.660000
330.586945	153.280000
330.680237	153.760000
330.773621	153.700000
330.866974	153.540000
330.960327	153.860000
331.053680	153.380000
331.147003	153.580000
331.240356	153.920000
331.333710	153.840000
331.427063	153.880000
331.520416	153.560000
331.613770	152.940000
331.707123	152.620000
331.800476	152.680000
331.893829	153.500000
331.987152	154.040000
332.080505	154.280000
332.173859	154.100000
332.267212	153.900000
332.360565	153.240000
332.453918	152.820000
332.547333	152.560000
332.640656	152.760000
332.734039	152.780000
332.827362	152.620000
332.920746	153.200000
333.014069	153.560000
333.107452	153.960000
333.200806	154.420000
333.294159	154.700000
333.387543	154.380000
333.480896	153.740000
333.574249	153.260000
333.667603	152.840000
333.760956	152.760000
333.854340	152.440000
333.947693	152.840000
334.041046	153.040000
334.134430	153.480000
334.227783	153.220000
334.321136	153.420000
334.414520	152.960000
334.507874	153.060000
334.601227	152.580000
334.694611	152.400000
334.787964	152.460000
334.881348	152.940000
334.974701	152.600000
335.068085	152.540000
335.161438	153.240000
335.254822	153.000000
335.348175	152.740000
335.441559	152.480000
335.534943	153.040000
335.628296	152.780000
335.721680	152.880000
335.815033	153.420000
335.908417	153.800000
336.001770	153.580000
336.095154	153.060000
336.188538	152.840000
336.281891	152.240000
336.375275	151.880000
336.468658	151.580000
336.562012	151.820000
336.655396	152.340000
336.748779	152.920000
336.842133	153.160000
336.935516	153.620000
337.028900	153.120000
337.122284	152.840000
337.215637	152.800000
337.309021	152.540000
337.402435	152.100000
337.495789	152.600000
337.589203	152.460000
337.682526	151.960000
337.775940	152.440000
337.869324	152.720000
337.962708	152.400000
338.056091	152.860000
338.149475	152.960000
338.242859	152.740000
338.336243	152.740000
338.429626	153.180000
338.523010	153.000000
338.616394	152.740000
338.709778	153.140000
338.803162	153.160000
338.896545	152.920000
338.989929	152.580000
339.083313	152.640000
339.176697	152.140000
339.270081	151.960000
339.363464	152.460000
339.456848	152.980000
339.550232	153.020000
339.643616	153.120000
339.737030	153.160000
339.830383	152.860000
339.923828	152.680000
340.017181	153.020000
340.110596	153.040000
340.203949	152.780000
340.297363	152.380000
340.390778	152.460000
340.484161	152.520000
340.577545	152.280000
340.670959	152.800000
340.764343	153.000000
340.857727	153.120000
340.951111	152.400000
341.044525	152.640000
341.137909	151.960000
341.231293	152.180000
341.324707	151.880000
341.418091	152.820000
341.511505	153.040000
341.604889	153.800000
341.698303	153.660000
341.791687	153.760000
341.885071	152.980000
341.978485	152.560000
342.071899	152.500000
342.165283	152.760000
342.258698	153.180000
342.352081	153.780000
342.445496	154.400000
342.538879	154.340000
342.632324	154.060000
342.725708	153.820000
342.819122	153.400000
342.912506	153.200000
343.005920	152.740000
343.099335	153.700000
343.192719	153.460000
343.286133	153.400000
343.379547	153.520000
343.472931	153.880000
343.566345	152.960000
343.659760	153.020000
343.753143	152.860000
343.846558	152.280000
343.939972	152.260000
344.033386	152.840000
344.126770	152.460000
344.220184	152.560000
344.313599	153.300000
344.407043	153.420000
344.500427	152.780000
344.593872	153.780000
344.687225	153.360000
344.780670	152.560000
344.874054	152.280000
344.967499	152.680000
345.060913	152.160000
345.154327	152.440000
345.247742	152.540000
345.341156	152.220000
345.434570	151.980000
345.527985	151.820000
345.621399	152.160000
345.714813	152.140000
345.808228	152.620000
345.901642	152.360000
345.995056	151.920000
346.088470	152.100000
346.181885	152.400000
346.275299	152.060000
346.368713	151.800000
346.462128	152.020000
346.555573	151.780000
346.648987	151.920000
346.742401	151.860000
346.835815	152.900000
346.929260	152.740000
347.022644	152.900000
347.116119	152.800000
347.209503	153.220000
347.302948	153.520000
347.396362	154.160000
347.489807	154.360000
347.583221	154.840000
347.676636	154.240000
347.770050	153.000000
347.863495	152.320000
347.956909	152.000000
348.050323	151.120000
348.143768	151.380000
348.237183	151.460000
348.330597	152.100000
348.424042	152.300000
348.517456	152.700000
348.610901	152.860000
348.704315	152.800000
348.797760	152.400000
348.891174	151.840000
348.984619	151.500000
349.078033	151.980000
349.171448	152.800000
349.264923	152.680000
349.358337	152.780000
349.451782	153.020000
349.545197	151.940000
349.638641	151.220000
349.732086	150.920000
349.825500	151.580000
349.918945	151.080000
350.012390	152.040000
350.105804	152.680000
350.199249	153.260000
350.292664	153.420000
350.386108	153.780000
350.479553	153.900000
350.572968	153.580000
350.666412	153.680000
350.759857	153.260000
350.853302	154.040000
350.946716	153.240000
351.040161	153.180000
351.133606	153.100000
351.227081	153.100000
351.320465	153.300000
351.413940	153.900000
351.507355	154.040000
351.600830	154.000000
351.694244	153.760000
351.787720	153.400000
351.881104	153.220000
351.974579	153.140000
352.067993	154.200000
352.161469	154.440000
352.254883	153.900000
352.348358	153.560000
352.441803	153.360000
352.535248	152.500000
352.628693	152.940000
352.722137	152.780000
352.815582	153.240000
352.909027	153.340000
353.002472	153.140000
353.095917	152.480000
353.189362	152.760000
353.282806	152.400000
353.376251	152.200000
353.469696	151.700000
353.563141	152.540000
353.656586	152.240000
353.750061	151.860000
353.843475	152.020000
353.936981	152.880000
354.030396	152.060000
354.123871	152.460000
354.217285	153.540000
354.310760	153.820000
354.404175	153.880000
354.497681	153.700000
354.591095	153.340000
354.684570	152.360000
354.777985	151.940000
354.871490	151.160000
354.964935	152.080000
355.058380	152.400000
355.151855	152.520000
355.245300	153.100000
355.338745	153.680000
355.432220	153.280000
355.525665	152.740000
355.619110	153.280000
355.712585	152.920000
355.806030	152.380000
355.899475	151.840000
355.992950	152.580000
356.086426	152.800000
356.179871	152.620000
356.273346	152.820000
356.366791	153.600000
356.460266	153.500000
356.553711	152.800000
356.647186	153.180000
356.740631	153.180000
356.834106	152.460000
356.927551	152.560000
357.021027	152.740000
357.114471	152.540000
357.207947	152.900000
357.301422	153.640000
357.394867	153.640000
357.488342	153.800000
357.581818	154.020000
357.675262	153.840000
357.768738	153.180000
357.862213	152.340000
357.955658	152.640000
358.049133	152.320000
358.142609	152.640000
358.236053	152.640000
358.329529	153.160000
358.423035	153.120000
358.516449	153.000000
358.609955	153.200000
358.703400	154.240000
358.796906	154.340000
358.890350	153.840000
358.983826	154.120000
359.077271	153.500000
359.170776	153.000000
359.264221	152.480000
359.357727	152.660000
359.451172	153.100000
359.544647	153.040000
359.638123	152.680000
359.731598	153.480000
359.825073	153.760000
359.918549	153.520000
360.012024	153.900000
360.105499	153.900000
360.198975	153.700000
360.292450	153.760000
360.385925	153.680000
360.479401	153.120000
360.572876	153.160000
360.666351	153.400000
360.759857	153.040000
360.853302	153.000000
360.946808	153.080000
361.040253	153.200000
361.133759	152.680000
361.227203	153.040000
361.320709	152.720000
361.414154	153.220000
361.507660	153.480000
361.601105	153.960000
361.694641	154.360000
361.788086	154.220000
361.881592	154.360000
361.975067	153.900000
362.068542	153.960000
362.162018	153.380000
362.255524	153.200000
362.348999	152.980000
362.442474	153.160000
362.535950	152.740000
362.629456	152.540000
362.722931	152.560000
362.816406	152.880000
362.909882	153.360000
363.003387	153.180000
363.096863	153.780000
363.190338	153.760000
363.283875	153.600000
363.377319	153.120000
363.470825	153.820000
363.564301	152.980000
363.657806	153.580000
363.751282	153.100000
363.844788	153.840000
363.938232	153.160000
364.031769	153.740000
364.125214	154.060000
364.218750	154.640000
364.312225	153.400000
364.405731	153.280000
364.499207	152.700000
364.592712	151.880000
364.686188	151.680000
364.779694	152.500000
364.873169	152.580000
364.966675	152.980000
365.060150	153.300000
365.153656	153.680000
365.247131	153.480000
365.340637	153.820000
365.434143	154.020000
365.527618	154.000000
365.621155	152.880000
365.714600	152.720000
365.808136	152.680000
365.901611	151.940000
365.995117	151.940000
366.088593	152.320000
366.182129	152.380000
366.275604	152.400000
366.369110	152.840000
366.462585	152.860000
366.556122	153.460000
366.649567	153.240000
366.743103	153.160000
366.836609	152.720000
366.930115	153.120000
367.023590	153.040000
367.117096	153.080000
367.210602	153.020000
367.304108	154.140000
367.397614	154.400000
367.491119	154.580000
367.584595	154.880000
367.678101	155.380000
367.771606	154.440000
367.865112	153.840000
367.958649	153.180000
368.052124	152.880000
368.145660	152.520000
368.239136	153.200000
368.332672	153.360000
368.426147	153.620000
368.519684	153.560000
368.613159	153.800000
368.706696	153.420000
368.800171	153.280000
368.893707	152.860000
368.987183	152.920000
369.080719	152.440000
369.174225	152.200000
369.267731	152.560000
369.361237	152.900000
369.454742	152.780000
369.548248	153.560000
369.641754	153.220000
369.735260	152.880000
369.828766	152.260000
369.922272	153.140000
370.015808	152.440000
370.109314	152.520000
370.202820	152.240000
370.296356	153.400000
370.389832	152.920000
370.483368	152.780000
370.576874	152.900000
370.670410	153.380000
370.763885	152.160000
370.857422	151.800000
370.950928	151.760000
371.044464	152.640000
371.137939	152.600000
371.231476	153.260000
371.324982	154.020000
371.418518	154.660000
371.512024	154.440000
371.605560	154.220000
371.699066	154.500000
371.792572	153.900000
371.886108	153.960000
371.979614	153.680000
372.073120	154.020000
372.166656	153.740000
372.260162	154.000000
372.353668	153.460000
372.447205	153.160000
372.540710	152.720000
372.634277	152.640000
372.727753	152.760000
372.821320	153.180000
372.914795	153.460000
373.008362	153.820000
373.101837	154.000000
373.195404	153.440000
373.288879	153.060000
373.382446	153.680000
373.475922	153.360000
373.569489	153.920000
373.662964	154.540000
373.756531	154.920000
373.850037	154.600000
373.943573	154.580000
374.037109	153.340000
374.130615	153.520000
374.224152	153.380000
374.317657	153.040000
374.411194	153.940000
374.504730	154.060000
374.598236	153.620000
374.691772	153.440000
374.785309	153.640000
374.878815	152.400000
374.972351	152.960000
375.065887	152.860000
375.159454	153.560000
375.252930	153.440000
375.346497	153.860000
375.440002	154.220000
375.533569	153.880000
375.627045	152.720000
375.720612	152.620000
375.814117	153.100000
375.907684	152.580000
376.001160	152.720000
376.094727	152.740000
376.188232	153.380000
376.281799	153.160000
376.375336	153.260000
376.468872	153.920000
376.562408	154.580000
376.655914	153.940000
376.749451	153.960000
376.842987	154.060000
376.936523	153.660000
377.030060	153.400000
377.123596	153.820000
377.217133	153.080000
377.310669	152.960000
377.404205	153.300000
377.497772	153.580000
377.591278	153.040000
377.684845	154.080000
377.778351	154.180000
377.871918	153.620000
377.965424	152.920000
378.058990	152.960000
378.152496	152.580000
378.246063	152.620000
378.339569	152.940000
378.433136	153.180000
378.526642	153.440000
378.620209	153.440000
378.713745	153.160000
378.807312	153.460000
378.900848	153.600000
378.994385	154.000000
379.087921	153.400000
379.181458	153.740000
379.274994	153.040000
379.368530	152.920000
379.462097	152.760000
379.555634	153.220000
379.649170	152.580000
379.742706	152.760000
379.836273	153.140000
379.929810	152.680000
380.023376	152.260000
380.116882	152.360000
380.210449	152.220000
380.303986	151.560000
380.397552	151.280000
380.491058	151.760000
380.584656	151.580000
380.678162	152.000000
380.771729	152.280000
380.865265	153.060000
380.958832	153.160000
381.052368	153.660000
381.145935	153.620000
381.239471	153.960000
381.333008	153.900000
381.426575	153.700000
381.520111	154.080000
381.613647	154.460000
381.707214	154.320000
381.800751	153.560000
381.894318	153.920000
381.987854	153.040000
382.081421	152.860000
382.174988	152.940000
382.268524	153.140000
382.362091	152.880000
382.455627	154.120000
382.549194	153.460000
382.642731	152.820000
382.736298	152.900000
382.829834	152.820000
382.923401	152.900000
383.016937	153.300000
383.110504	153.920000
383.204041	154.100000
383.297607	154.440000
383.391174	153.320000
383.484741	153.860000
383.578278	153.480000
383.671844	152.700000
383.765411	151.620000
383.858948	152.340000
383.952515	151.900000
384.046051	152.460000
384.139618	153.360000
384.233185	154.340000
384.326721	154.180000
384.420288	154.680000
384.513855	154.580000
384.607422	154.660000
384.700989	154.680000
384.794525	153.860000
384.888123	153.720000
384.981659	153.880000
385.075226	153.480000
385.168762	152.800000
385.262360	153.400000
385.355896	152.340000
385.449463	151.920000
385.542999	151.720000
385.636597	152.760000
385.730164	152.560000
385.823730	152.540000
385.917267	152.120000
386.010834	152.400000
386.104401	152.120000
386.197968	152.560000
386.291534	153.340000
386.385101	153.880000
386.478668	154.340000
386.572235	154.040000
386.665802	153.340000
386.759338	152.760000
386.852905	152.420000
386.946472	151.900000
387.040070	152.200000
387.133606	152.640000
387.227203	152.520000
387.320740	152.980000
387.414337	152.780000
387.507874	152.460000
387.601471	152.400000
387.695007	152.360000
387.788605	152.080000
387.882141	152.420000
387.975739	152.540000
388.069275	152.240000
388.162872	152.960000
388.256439	152.880000
388.350037	152.600000
388.443604	152.380000
388.537170	152.520000
388.630737	152.940000
388.724304	152.940000
388.817871	152.980000
388.911438	153.000000
389.005005	153.200000
389.098602	152.940000
389.192169	153.060000
389.285736	153.640000
389.379333	153.700000
389.472870	153.600000
389.566467	153.440000
389.660034	153.200000
389.753632	152.440000
389.847168	152.940000
389.940765	153.120000
390.034332	153.420000
390.127930	153.200000
390.221466	153.560000
390.315063	152.740000
390.408630	152.160000
390.502228	151.100000
390.595795	151.880000
390.689362	151.880000
390.782959	152.560000
390.876526	153.280000
390.970093	153.520000
391.063690	153.660000
391.157257	154.260000
391.250824	154.640000
391.344421	154.160000
391.437988	154.780000
391.531555	154.520000
391.625153	153.920000
391.718750	153.460000
391.812317	153.500000
391.905914	152.980000
391.999481	152.880000
392.093079	152.820000
392.186615	153.200000
392.280243	153.260000
392.373779	153.340000
392.467407	153.880000
392.560944	153.980000
392.654572	153.320000
392.748108	153.380000
392.841736	153.560000
392.935303	152.920000
393.028900	152.620000
393.122467	152.980000
393.216064	152.700000
393.309631	152.080000
393.403229	151.860000
393.496796	151.740000
393.590393	150.760000
393.683990	150.860000
393.777557	151.800000
393.871155	152.200000
393.964722	152.620000
394.058350	153.020000
394.151917	153.080000
394.245514	152.560000
394.339081	152.980000
394.432678	153.240000
394.526245	153.500000
394.619873	153.280000
394.713409	153.420000
394.807037	152.680000
394.900604	153.020000
394.994202	152.980000
395.087769	153.500000
395.181396	152.940000
395.274994	153.860000
395.368561	153.140000
395.462158	153.320000
395.555756	152.840000
395.649353	153.540000
395.742920	153.020000
395.836517	153.360000
395.930115	152.640000
396.023712	152.720000
396.117279	152.740000
396.210876	152.060000
396.304474	151.860000
396.398071	152.580000
396.491669	153.240000
396.585266	152.620000
396.678833	152.880000
396.772461	153.040000
396.866028	152.300000
396.959656	152.020000
397.053223	152.500000
397.146851	152.160000
397.240417	151.960000
397.334015	153.260000
397.427582	152.720000
397.521210	152.840000
397.614807	153.660000
397.708405	153.740000
397.802002	153.120000
397.895599	153.900000
397.989197	153.600000
398.082794	153.180000
398.176392	153.260000
398.269989	153.180000
398.363586	153.100000
398.457184	153.960000
398.550781	154.340000
398.644379	154.140000
398.737976	154.200000
398.831573	154.400000
398.925201	153.920000
399.018768	154.660000
399.112396	155.940000
399.205963	158.300000
399.299591	161.260000
399.393158	165.960000
399.486786	172.440000
399.580353	183.300000
399.673981	203.960000
399.767578	239.540000
399.861206	291.660000
399.954773	353.660000
400.048401	410.860000
400.141998	446.120000
400.235596	450.540000
400.329193	420.020000
400.422791	365.800000
400.516418	303.720000
400.610016	249.840000
400.703613	210.540000
400.797211	185.780000
400.890808	172.820000
400.984436	167.260000
401.078033	164.040000
401.171631	160.660000
401.265259	159.520000
401.358826	158.380000
401.452484	157.600000
401.546051	157.420000
401.639679	157.020000
401.733246	156.880000
401.826904	156.080000
401.920471	154.840000
402.014099	153.900000
402.107697	153.680000
402.201324	153.540000
402.294891	153.720000
402.388550	154.380000
402.482147	154.480000
402.575745	154.480000
402.669373	153.880000
402.762970	153.580000
402.856567	153.320000
402.950195	153.640000
403.043793	153.560000
403.137390	154.300000
403.231018	153.460000
403.324615	154.020000
403.418243	153.060000
403.511841	153.580000
403.605469	153.320000
403.699066	154.360000
403.792694	154.120000
403.886292	154.780000
403.979919	154.420000
404.073517	154.280000
404.167145	154.280000
404.260712	154.380000
404.354370	154.080000
404.447937	154.180000
404.541595	154.240000
404.635162	154.460000
404.728821	154.700000
404.822418	154.220000
404.916046	153.720000
405.009644	153.820000
405.103271	153.660000
405.196899	152.960000
405.290497	153.380000
405.384125	153.960000
405.477722	153.540000
405.571350	152.880000
405.664948	153.300000
405.758575	153.060000
405.852203	152.580000
405.945801	152.540000
406.039429	152.900000
406.133057	152.560000
406.226654	152.700000
406.320312	153.080000
406.413879	153.320000
406.507538	153.560000
406.601135	153.280000
406.694763	153.740000
406.788361	153.360000
406.882019	153.100000
406.975586	153.300000
407.069244	153.840000
407.162872	153.680000
407.256470	153.820000
407.350098	153.740000
407.443726	153.160000
407.537323	152.620000
407.630951	152.720000
407.724579	152.500000
407.818207	153.160000
407.911804	153.300000
408.005432	153.640000
408.099060	153.900000
408.192688	154.320000
408.286285	153.860000
408.379913	153.180000
408.473572	152.800000
408.567169	151.920000
408.660828	151.740000
408.754395	151.760000
408.848053	152.080000
408.941650	152.460000
409.035309	152.120000
409.128906	152.160000
409.222565	152.660000
409.316132	152.900000
409.409790	152.840000
409.503387	153.260000
409.597046	153.340000
409.690674	153.180000
409.784302	153.360000
409.877930	153.200000
409.971558	153.660000
410.065186	153.480000
410.158783	152.860000
410.252411	152.640000
410.346039	153.220000
410.439667	152.920000
410.533295	153.100000
410.626923	153.620000
410.720551	153.320000
410.814209	153.600000
410.907806	153.900000
411.001465	153.100000
411.095062	153.240000
411.188721	153.880000
411.282318	153.360000
411.375977	153.180000
411.469574	153.540000
411.563232	153.240000
411.656830	152.940000
411.750488	152.520000
411.844086	152.300000
411.937744	152.880000
412.031372	152.580000
412.125000	152.440000
412.218628	152.940000
412.312256	153.600000
412.405884	153.520000
412.499512	153.660000
412.593170	154.080000
412.686798	153.980000
412.780426	153.420000
412.874054	153.780000
412.967682	153.940000
413.061310	154.180000
413.154968	154.420000
413.248566	154.420000
413.342224	153.600000
413.435852	153.660000
413.529510	153.260000
413.623108	152.500000
413.716766	152.420000
413.810364	153.300000
413.904022	152.860000
413.997650	152.340000
414.091309	153.140000
414.184906	153.500000
414.278564	153.060000
414.372192	153.400000
414.465851	154.000000
414.559479	153.660000
414.653107	153.980000
414.746735	153.740000
414.840393	153.740000
414.934021	153.960000
415.027649	153.660000
415.121277	153.320000
415.214935	153.680000
415.308563	153.600000
415.402191	152.660000
415.495850	152.980000
415.589478	152.640000
415.683136	152.280000
415.776733	152.620000
415.870422	153.420000
415.964020	152.660000
416.057678	152.780000
416.151306	152.800000
416.244965	152.620000
416.338562	152.540000
416.432251	153.380000
416.525848	154.240000
416.619507	154.280000
416.713165	154.460000
416.806793	154.340000
416.900421	154.140000
416.994080	153.220000
417.087708	153.300000
417.181366	152.800000
417.274994	152.900000
417.368622	153.320000
417.462280	153.980000
417.555908	153.840000
417.649567	153.840000
417.743195	153.700000
417.836853	153.560000
417.930481	153.360000
418.024170	153.560000
418.117767	154.060000
418.211426	154.340000
418.305054	154.380000
418.398712	153.940000
418.492340	154.060000
418.585999	154.520000
418.679626	154.420000
418.773285	154.300000
418.866913	154.640000
418.960571	154.740000
419.054230	154.620000
419.147858	154.780000
419.241516	155.040000
419.335144	154.860000
419.428802	154.560000
419.522461	153.840000
419.616089	153.140000
419.709747	153.160000
419.803375	153.140000
419.897034	152.740000
419.990662	152.920000
420.084320	153.460000
420.177979	153.440000
420.271606	153.920000
420.365295	154.820000
420.458893	155.000000
420.552582	155.280000
420.646210	155.260000
420.739868	154.820000
420.833496	154.100000
420.927155	153.740000
421.020782	153.180000
421.114471	152.300000
421.208069	152.480000
421.301758	152.920000
421.395386	153.000000
421.489044	153.320000
421.582703	153.860000
421.676361	154.400000
421.769989	154.060000
421.863647	154.600000
421.957306	154.360000
422.050934	154.340000
422.144592	154.020000
422.238251	153.640000
422.331909	153.060000
422.425537	153.120000
422.519196	153.040000
422.612854	152.400000
422.706543	152.220000
422.800140	152.600000
422.893829	152.320000
422.987457	152.020000
423.081146	152.280000
423.174744	153.400000
423.268433	152.820000
423.362061	152.800000
423.455750	152.860000
423.549347	153.080000
423.643036	151.820000
423.736664	152.700000
423.830353	152.760000
423.924011	153.360000
424.017639	153.160000
424.111298	153.720000
424.204956	153.380000
424.298615	153.640000
424.392273	153.140000
424.485931	153.200000
424.579559	153.560000
424.673218	153.440000
424.766876	153.320000
424.860535	153.140000
424.954193	152.900000
425.047882	153.060000
425.141510	153.080000
425.235199	153.280000
425.328796	153.280000
425.422485	153.420000
425.516113	152.860000
425.609802	152.680000
425.703430	152.700000
425.797119	152.560000
425.890747	153.020000
425.984436	153.260000
426.078064	153.300000
426.171753	153.240000
426.265411	153.520000
426.359070	153.260000
426.452728	153.180000
426.546356	153.060000
426.640015	153.040000
426.733673	152.820000
426.827332	152.240000
426.920990	153.080000
427.014648	153.020000
427.108307	153.180000
427.201965	154.040000
427.295624	154.480000
427.389282	153.700000
427.482941	154.080000
427.576630	153.960000
427.670258	153.460000
427.763947	153.540000
427.857574	153.460000
427.951263	153.480000
428.044922	153.040000
428.138611	153.180000
428.232239	154.040000
428.325928	154.560000
428.419556	154.960000
428.513245	155.540000
428.606903	155.600000
428.700562	154.640000
428.794220	153.860000
428.887878	153.060000
428.981537	153.260000
429.075195	153.220000
429.168854	153.800000
429.262512	154.240000
429.356201	154.960000
429.449860	154.620000
429.543518	154.760000
429.637177	154.740000
429.730835	154.680000
429.824493	154.180000
429.918182	154.340000
430.011810	153.720000
430.105530	152.860000
430.199158	153.140000
430.292847	153.180000
430.386475	152.860000
430.480164	153.000000
430.573792	153.080000
430.667511	152.840000
430.761139	153.040000
430.854828	153.780000
430.948456	153.720000
431.042145	154.240000
431.135834	154.040000
431.229492	154.220000
431.323151	154.120000
431.416809	154.500000
431.510468	154.560000
431.604156	154.700000
431.697815	154.360000
431.791473	153.860000
431.885132	153.320000
431.978821	153.520000
432.072479	153.760000
432.166138	154.320000
432.259827	154.080000
432.353485	154.860000
432.447174	154.840000
432.540802	154.440000
432.634491	154.140000
432.728149	154.860000
432.821838	154.900000
432.915466	154.520000
433.009186	155.020000
433.102814	154.500000
433.196503	153.900000
433.290131	154.160000
433.383850	154.300000
433.477509	154.020000
433.571167	155.040000
433.664856	155.620000
433.758514	155.560000
433.852173	155.540000
433.945862	155.360000
434.039520	154.920000
434.133179	154.000000
434.226868	153.520000
434.320526	152.860000
434.414185	153.980000
434.507874	153.420000
434.601562	153.900000
434.695221	153.920000
434.788910	154.420000
434.882538	154.020000
434.976257	153.960000
435.069885	154.100000
435.163574	154.240000
435.257233	153.720000
435.350922	153.320000
435.444580	153.380000
435.538269	153.120000
435.631897	153.440000
435.725616	154.160000
435.819275	154.760000
435.912964	155.620000
436.006622	156.100000
436.100311	155.840000
436.193970	155.500000
436.287628	154.820000
436.381317	154.200000
436.474976	153.600000
436.568665	153.280000
436.662323	153.260000
436.756012	153.240000
436.849670	153.160000
436.943390	153.460000
437.037018	153.320000
437.130737	153.500000
437.224365	153.360000
437.318085	153.400000
437.411713	153.460000
437.505432	154.260000
437.599060	154.520000
437.692780	155.360000
437.786407	155.400000
437.880127	155.240000
437.973755	154.620000
438.067474	154.260000
438.161133	153.940000
438.254822	154.440000
438.348480	154.220000
438.442169	154.740000
438.535828	154.820000
438.629517	154.420000
438.723175	153.440000
438.816864	154.140000
438.910553	153.540000
439.004211	153.080000
439.097900	153.120000
439.191559	153.640000
439.285248	152.660000
439.378906	152.980000
439.472626	153.320000
439.566284	152.860000
439.659973	153.200000
439.753632	153.380000
439.847321	153.760000
439.940979	153.860000
440.034698	154.340000
440.128326	153.660000
440.222046	153.640000
440.315674	152.600000
440.409393	152.720000
440.503082	152.420000
440.596741	152.600000
440.690430	152.960000
440.784088	153.320000
440.877777	152.740000
440.971466	153.160000
441.065125	153.000000
441.158813	152.620000
441.252502	152.780000
441.346161	153.120000
441.439850	153.220000
441.533539	153.220000
441.627197	153.580000
441.720886	153.080000
441.814606	153.220000
441.908234	153.320000
442.001953	153.380000
442.095612	153.180000
442.189301	153.640000
442.282959	153.960000
442.376678	152.980000
442.470306	153.560000
442.564026	153.700000
442.657684	153.720000
442.751404	153.500000
442.845032	154.880000
442.938751	154.280000
443.032440	154.080000
443.126099	153.600000
443.219788	153.900000
443.313477	152.760000
443.407166	153.060000
443.500824	153.060000
443.594513	153.380000
443.688202	152.920000
443.781891	152.420000
443.875549	151.800000
443.969238	151.720000
444.062927	151.880000
444.156647	151.940000
444.250275	153.080000
444.343994	153.380000
444.437653	153.740000
444.531372	153.640000
444.625031	153.340000
444.718719	152.460000
444.812378	152.680000
444.906097	152.180000
444.999756	151.720000
445.093445	152.100000
445.187103	152.420000
445.280823	152.780000
445.374512	152.820000
445.468201	153.300000
445.561859	152.980000
445.655548	153.260000
445.749237	152.460000
445.842926	152.580000
445.936615	152.660000
446.030304	152.320000
446.123962	152.320000
446.217651	152.340000
446.311340	152.380000
446.405029	151.820000
446.498749	151.900000
446.592407	151.500000
446.686096	151.940000
446.779755	152.120000
446.873474	152.760000
446.967133	153.060000
447.060852	152.900000
447.154510	152.720000
447.248230	152.640000
447.341858	152.500000
447.435577	152.100000
447.529236	151.980000
447.622955	151.740000
447.716644	151.900000
447.810333	151.860000
447.904022	152.380000
447.997711	152.560000
448.091400	152.960000
448.185059	152.900000
448.278748	153.120000
448.372437	152.740000
448.466125	153.300000
448.559814	153.500000
448.653503	153.940000
448.747192	154.180000
448.840912	154.600000
448.934570	154.440000
449.028290	154.700000
449.121948	153.880000
449.215637	153.120000
449.309296	152.700000
449.403015	152.760000
449.496674	152.380000
449.590393	152.460000
449.684052	152.560000
449.777771	153.440000
449.871429	152.700000
449.965149	152.300000
450.058838	152.660000
450.152527	153.100000
450.246216	152.440000
450.339905	153.000000
450.433594	152.980000
450.527283	153.360000
450.620972	152.940000
450.714661	153.020000
450.808350	153.220000
450.902039	153.560000
450.995728	153.160000
451.089417	152.940000
451.183105	152.800000
451.276794	153.160000
451.370514	152.800000
451.464172	152.060000
451.557892	152.240000
451.651550	152.680000
451.745270	151.920000
451.838928	151.440000
451.932648	152.020000
452.026306	152.420000
452.120026	152.080000
452.213684	152.720000
452.307404	153.280000
452.401062	153.600000
452.494781	153.800000
452.588470	153.620000
452.682159	152.940000
452.775848	153.180000
452.869537	152.340000
452.963226	151.640000
453.056915	151.640000
453.150604	151.740000
453.244293	151.740000
453.337982	152.860000
453.431671	153.480000
453.525360	154.420000
453.619049	154.580000
453.712769	154.440000
453.806427	153.900000
453.900146	153.100000
453.993805	152.280000
454.087555	152.680000
454.181213	152.680000
454.274933	152.380000
454.368591	152.720000
454.462311	152.640000
454.555969	152.260000
454.649689	153.020000
454.743347	153.180000
454.837067	153.720000
454.930756	154.820000
455.024445	154.480000
455.118134	153.720000
455.211853	153.980000
455.305542	153.720000
455.399231	152.680000
455.492920	153.200000
455.586609	153.320000
455.680298	153.340000
455.773987	152.560000
455.867676	152.960000
455.961365	153.060000
456.055084	152.900000
456.148773	152.500000
456.242493	153.020000
456.336151	153.200000
456.429871	153.440000
456.523529	154.100000
456.617249	154.160000
456.710907	154.640000
456.804626	154.280000
456.898315	153.560000
456.992035	153.000000
457.085693	152.440000
457.179413	151.560000
457.273102	152.340000
457.366791	152.420000
457.460480	153.040000
457.554199	154.320000
457.647888	154.980000
457.741577	154.460000
457.835266	154.760000
457.928955	154.560000
458.022644	154.600000
458.116364	154.460000
458.210052	154.360000
458.303741	154.400000
458.397461	153.860000
458.491119	152.840000
458.584839	152.940000
458.678528	152.440000
458.772247	151.940000
458.865906	152.140000
458.959625	153.460000
459.053284	153.460000
459.147003	153.480000
459.240692	154.220000
459.334412	154.160000
459.428070	153.400000
459.521790	153.020000
459.615479	153.160000
459.709198	153.540000
459.802887	153.060000
459.896576	152.820000
459.990265	153.260000
460.083954	153.520000
460.177673	152.740000
460.271362	153.200000
460.365051	153.220000
460.458740	152.800000
460.552429	152.520000
460.646149	152.400000
460.739838	152.000000
460.833527	152.260000
460.927246	152.140000
461.020905	151.980000
461.114655	152.020000
461.208313	152.580000
461.302032	152.260000
461.395691	152.360000
461.489441	152.200000
461.583099	152.300000
461.676819	151.780000
461.770477	152.060000
461.864197	151.820000
461.957916	152.080000
462.051605	151.360000
462.145294	152.180000
462.238983	151.920000
462.332703	152.460000
462.426392	152.760000
462.520081	153.200000
462.613770	152.660000
462.707489	152.900000
462.801178	152.900000
462.894867	152.680000
462.988556	152.660000
463.082275	152.880000
463.175964	152.180000
463.269684	152.260000
463.363342	152.500000
463.457092	151.700000
463.550751	151.920000
463.644470	152.540000
463.738129	152.320000
463.831879	152.280000
463.925537	153.780000
464.019257	153.480000
464.112946	153.300000
464.206665	153.380000
464.300323	153.140000
464.394043	152.540000
464.487762	152.540000
464.581451	152.980000
464.675140	152.800000
464.768829	153.200000
464.862549	153.200000
464.956238	153.380000
465.049927	153.160000
465.143646	153.580000
465.237335	153.220000
465.331024	153.660000
465.424713	153.560000
465.518433	153.420000
465.612152	153.000000
465.705811	153.060000
465.799561	153.040000
465.893219	152.820000
465.986938	152.780000
466.080597	152.620000
466.174347	153.080000
466.268005	153.040000
466.361725	153.100000
466.455414	153.340000
466.549133	153.220000
466.642792	153.100000
466.736542	152.620000
466.830231	152.580000
466.923920	152.180000
467.017609	152.560000
467.111328	151.940000
467.205017	152.100000
467.298706	152.160000
467.392426	152.520000
467.486115	152.660000
467.579803	152.500000
467.673523	152.700000
467.767212	153.140000
467.860901	153.060000
467.954651	153.320000
468.048309	153.800000
468.142029	153.780000
468.235718	153.620000
468.329437	153.380000
468.423096	153.240000
468.516846	153.000000
468.610504	152.740000
468.704224	152.360000
468.797913	152.560000
468.891632	152.440000
468.985291	152.680000
469.079010	152.720000
469.172729	152.240000
469.266418	152.660000
469.360107	152.780000
469.453827	152.580000
469.547516	152.720000
469.641205	153.260000
469.734924	153.020000
469.828613	153.180000
469.922302	153.360000
470.016022	153.280000
470.109711	153.400000
470.203430	152.900000
470.297150	152.080000
470.390808	152.440000
470.484558	152.280000
470.578217	152.820000
470.671936	153.420000
470.765625	154.300000
470.859344	153.860000
470.953003	154.360000
471.046753	153.640000
471.140411	153.020000
471.234131	153.260000
471.327820	154.040000
471.421539	153.620000
471.515228	153.600000
471.608948	153.900000
471.702637	153.220000
471.796326	152.480000
471.890045	152.800000
471.983734	152.960000
472.077423	152.660000
472.171143	152.620000
472.264832	152.400000
472.358521	152.220000
472.452240	151.720000
472.545929	152.260000
472.639648	152.500000
472.733337	153.180000
472.827057	153.400000
472.920746	153.840000
473.014465	154.000000
473.108124	154.300000
473.201874	154.340000
473.295532	154.020000
473.389252	154.300000
473.482941	154.140000
473.576660	153.420000
473.670319	152.920000
473.764069	153.260000
473.857727	153.240000
473.951477	153.480000
474.045166	154.080000
474.138855	153.940000
474.232574	153.560000
474.326263	153.460000
474.419952	153.400000
474.513672	153.160000
474.607361	153.100000
474.701050	153.360000
474.794769	153.440000
474.888458	153.640000
474.982178	153.500000
475.075867	154.040000
475.169586	153.900000
475.263275	153.940000
475.356995	153.640000
475.450653	153.280000
475.544403	152.720000
475.638062	153.140000
475.731812	152.560000
475.825470	152.180000
475.919189	152.560000
476.012878	152.840000
476.106598	152.440000
476.200256	152.940000
476.294006	153.280000
476.387695	153.380000
476.481384	152.760000
476.575104	152.880000
476.668793	152.660000
476.762512	152.260000
476.856201	152.680000
476.949890	153.080000
477.043610	152.500000
477.137299	152.720000
477.230988	153.120000
477.324707	152.580000
477.418396	153.280000
477.512146	153.580000
477.605804	153.240000
477.699524	153.600000
477.793213	153.580000
477.886932	153.100000
477.980591	153.220000
478.074341	153.060000
478.167999	151.960000
478.261749	152.400000
478.355408	151.980000
478.449127	151.940000
478.542816	153.300000
478.636536	154.520000
478.730225	154.240000
478.823944	155.000000
478.917633	155.040000
479.011322	154.500000
479.105042	154.180000
479.198730	154.400000
479.292450	153.620000
479.386139	153.760000
479.479828	153.560000
479.573547	153.500000
479.667267	153.540000
479.760925	154.000000
479.854675	154.080000
479.948334	154.040000
480.042084	153.600000
480.135742	153.720000
480.229462	153.280000
480.323151	153.440000
480.416870	152.860000
480.510529	153.100000
480.604279	151.940000
480.697937	152.720000
480.791656	152.220000
480.885345	152.140000
480.979065	152.060000
481.072754	153.320000
481.166473	153.360000
481.260132	153.280000
481.353882	153.660000
481.447540	153.580000
481.541260	153.120000
481.635010	152.420000
481.728668	152.660000
481.822388	152.400000
481.916077	152.620000
482.009796	152.400000
482.103485	152.920000
482.197205	153.060000
482.290863	153.620000
482.384613	153.400000
482.478271	153.200000
482.571991	152.880000
482.665680	152.460000
482.759399	152.900000
482.853058	153.380000
482.946808	153.380000
483.040466	153.280000
483.134216	153.160000
483.227875	152.120000
483.321594	152.540000
483.415283	152.680000
483.509003	152.840000
483.602661	152.900000
483.696411	153.580000
483.790070	152.780000
483.883789	152.960000
483.977478	153.180000
484.071198	153.340000
484.164917	152.820000
484.258606	152.600000
484.352325	152.820000
484.445984	152.800000
484.539734	152.860000
484.633392	152.620000
484.727142	153.400000
484.820801	153.100000
484.914520	152.740000
485.008209	153.220000
485.101929	153.840000
485.195587	153.080000
485.289337	153.360000
485.382996	153.560000
485.476715	152.960000
485.570404	153.440000
485.664124	153.660000
485.757782	153.940000
485.851532	153.720000
485.945190	153.800000
486.038910	153.540000
486.132599	154.000000
486.226318	153.260000
486.319977	153.100000
486.413727	153.760000
486.507446	153.380000
486.601105	152.600000
486.694855	152.420000
486.788513	152.520000
486.882233	151.960000
486.975922	151.920000
487.069641	152.000000
487.163300	152.280000
487.257050	153.340000
487.350708	153.120000
487.444427	152.920000
487.538116	152.880000
487.631836	152.740000
487.725494	152.160000
487.819214	152.640000
487.912903	152.600000
488.006622	153.140000
488.100281	153.540000
488.194031	153.540000
488.287689	153.580000
488.381409	154.340000
488.475098	153.920000
488.568817	153.640000
488.662476	153.140000
488.756226	152.540000
488.849945	151.000000
488.943604	151.340000
489.037354	151.660000
489.131012	151.560000
489.224731	151.700000
489.318390	152.300000
489.412140	152.000000
489.505798	151.840000
489.599518	151.760000
489.693207	152.140000
489.786926	152.280000
489.880585	152.200000
489.974335	152.520000
490.067993	153.820000
490.161713	153.960000
490.255371	154.800000
490.349121	154.880000
490.442780	153.940000
490.536499	152.740000
490.630188	152.620000
490.723907	151.880000
490.817566	152.240000
490.911285	153.100000
491.004974	152.980000
491.098694	152.500000
491.192413	153.000000
491.286102	152.680000
491.379822	152.340000
491.473480	153.080000
491.567200	153.040000
491.660889	152.260000
491.754608	152.320000
491.848267	152.460000
491.941986	152.260000
492.035675	152.580000
492.129395	153.220000
492.223053	153.200000
492.316772	153.200000
492.410461	153.100000
492.504181	152.980000
492.597839	152.620000
492.691559	152.480000
492.785248	152.700000
492.878967	152.660000
492.972626	152.280000
493.066345	151.980000
493.160034	151.860000
493.253754	151.620000
493.347412	151.240000
493.441132	151.620000
493.534882	152.720000
493.628540	153.040000
493.722260	153.300000
493.815918	153.760000
493.909668	154.420000
494.003326	154.320000
494.097046	154.420000
494.190704	153.980000
494.284454	153.860000
494.378113	153.380000
494.471832	152.940000
494.565491	152.520000
494.659210	152.580000
494.752899	152.500000
494.846619	152.340000
494.940277	152.360000
495.033997	152.300000
495.127686	152.260000
495.221405	152.280000
495.315063	152.140000
495.408783	152.220000
495.502441	152.380000
495.596191	152.380000
495.689850	152.180000
495.783569	152.700000
495.877228	152.660000
495.970947	152.680000
496.064697	152.740000
496.158356	153.860000
496.252075	153.460000
496.345734	153.160000
496.439453	153.860000
496.533142	153.900000
496.626862	153.420000
496.720520	153.560000
496.814240	153.980000
496.907898	153.440000
497.001617	153.560000
497.095306	152.800000
497.189026	152.500000
497.282684	152.360000
497.376404	152.740000
497.470062	152.600000
497.563782	153.140000
497.657471	153.320000
497.751190	153.320000
497.844849	152.960000
497.938568	153.200000
498.032227	153.040000
498.125946	153.280000
498.219635	153.120000
498.313354	153.320000
498.407074	152.940000
498.500732	153.360000
498.594452	153.340000
498.688110	153.000000
498.781830	152.640000
498.875519	152.620000
498.969238	152.120000
499.062897	151.800000
499.156616	152.620000
499.250275	152.760000
499.343994	152.660000
499.437653	152.820000
499.531372	153.160000
499.625061	153.400000
499.718781	153.460000
499.812439	153.940000
499.906158	153.820000
499.999817	153.440000
500.093536	152.680000
500.187195	152.840000
500.280914	152.700000
500.374573	152.940000
500.468323	152.860000
500.561981	153.280000
500.655701	152.860000
500.749420	152.760000
500.843079	152.620000
500.936798	152.940000
501.030457	153.080000
501.124176	153.400000
501.217834	153.440000
501.311554	153.540000
501.405212	153.100000
501.498962	151.980000
501.592621	151.780000
501.686340	152.220000
501.779999	152.140000
501.873718	152.480000
501.967377	153.140000
502.061096	153.240000
502.154755	152.520000
502.248474	152.740000
502.342133	152.780000
502.435852	152.840000
502.529510	153.400000
502.623230	154.120000
502.716888	153.320000
502.810608	153.460000
502.904266	154.040000
502.997986	153.460000
503.091705	153.000000
503.185364	153.300000
503.279083	153.280000
503.372772	152.740000
503.466492	152.420000
503.560150	152.320000
503.653870	152.560000
503.747528	152.400000
503.841248	152.360000
503.934906	152.380000
504.028625	152.280000
504.122284	152.660000
504.216003	153.480000
504.309662	153.240000
504.403381	153.980000
504.497040	154.020000
504.590759	153.600000
504.684418	153.400000
504.778137	153.980000
504.871796	153.920000
504.965515	153.920000
505.059174	154.020000
505.152893	153.240000
505.246521	152.780000
505.340240	152.320000
505.433899	152.340000
505.527618	152.500000
505.621338	153.060000
505.714996	152.980000
505.808716	153.160000
505.902374	153.840000
505.996094	153.740000
506.089752	153.420000
506.183472	153.560000
506.277130	153.660000
506.370850	153.560000
506.464508	153.620000
506.558228	153.920000
506.651886	153.660000
506.745605	153.660000
506.839264	153.320000
506.932983	153.020000
507.026611	152.740000
507.120331	153.240000
507.213989	152.760000
507.307709	152.860000
507.401367	153.540000
507.495087	154.640000
507.588745	154.080000
507.682465	155.400000
507.776123	155.340000
507.869843	154.560000
507.963531	153.840000
508.057190	154.680000
508.150909	153.340000
508.244568	153.180000
508.338287	153.220000
508.431946	152.860000
508.525665	152.320000
508.619324	152.300000
508.713013	152.780000
508.806671	153.240000
508.900391	154.420000
508.994049	154.320000
509.087769	154.200000
509.181427	154.120000
509.275146	153.660000
509.368774	152.260000
509.462494	152.620000
509.556152	152.800000
509.649872	153.180000
509.743530	153.560000
509.837250	153.900000
509.930878	153.880000
510.024597	153.940000
510.118256	153.100000
510.211975	152.900000
510.305695	152.740000
510.399353	152.780000
510.493042	153.600000
510.586700	154.180000
510.680420	154.860000
510.774078	154.640000
510.867798	154.700000
510.961426	153.780000
511.055145	153.220000
511.148804	152.760000
511.242523	153.720000
511.336151	153.760000
511.429871	154.400000
511.523529	154.580000
511.617249	154.300000
511.710876	153.780000
511.804596	153.380000
511.898254	152.820000
511.991974	153.180000
512.085632	152.800000
512.179321	152.820000
512.272949	153.420000
512.366699	154.040000
512.460327	153.620000
512.554077	155.060000
512.647766	154.860000
512.741394	154.300000
512.835144	154.620000
512.928772	154.720000
513.022461	154.200000
513.116150	154.100000
513.209839	154.840000
513.303467	153.880000
513.397217	153.600000
513.490845	153.140000
513.584595	153.040000
513.678223	152.300000
513.771912	151.860000
513.865601	152.120000
513.959290	151.920000
514.052917	151.980000
514.146667	152.880000
514.240295	153.760000
514.333984	154.020000
514.427673	153.820000
514.521362	154.460000
514.614990	153.500000
514.708740	153.420000
514.802368	153.540000
514.896057	154.000000
514.989746	154.440000
515.083435	154.300000
515.177124	154.500000
515.270752	153.900000
515.364502	154.080000
515.458130	153.580000
515.551819	153.520000
515.645508	153.300000
515.739197	153.300000
515.832825	152.860000
515.926575	152.540000
516.020203	152.960000
516.113892	153.540000
516.207520	153.840000
516.301270	154.240000
516.394897	154.200000
516.488586	154.360000
516.582275	153.960000
516.675964	153.380000
516.769592	153.340000
516.863281	154.100000
516.956970	154.500000
517.050659	154.380000
517.144287	154.960000
517.238037	154.880000
517.331665	154.240000
517.425354	153.400000
517.519043	153.220000
517.612732	153.520000
517.706421	153.500000
517.800049	153.720000
517.893738	153.560000
517.987427	153.460000
518.081116	153.100000
518.174744	152.740000
518.268433	152.600000
518.362122	153.620000
518.455811	153.800000
518.549438	154.240000
518.643127	155.360000
518.736816	154.960000
518.830505	154.060000
518.924133	153.860000
519.017822	153.800000
519.111511	153.080000
519.205200	153.880000
519.298828	154.160000
519.392517	154.000000
519.486206	153.720000
519.579895	153.920000
519.673523	153.200000
519.767212	153.320000
519.860901	153.940000
519.954590	153.680000
520.048279	153.080000
520.141907	153.080000
520.235596	153.760000
520.329224	153.920000
520.422974	154.120000
520.516602	154.540000
520.610291	154.220000
520.703918	153.820000
520.797607	153.220000
520.891296	153.280000
520.984985	153.300000
521.078613	154.460000
521.172302	153.720000
521.265930	154.900000
521.359680	155.180000
521.453308	154.940000
521.546997	154.180000
521.640625	154.320000
521.734314	153.460000
521.827942	153.020000
521.921692	153.240000
522.015320	153.580000
522.109009	153.660000
522.202698	153.360000
522.296326	153.460000
522.390015	153.680000
522.483704	153.420000
522.577393	153.100000
522.671021	153.120000
522.764709	152.660000
522.858337	152.760000
522.952026	152.900000
523.045654	153.520000
523.139404	154.360000
523.233032	154.580000
523.326721	154.340000
523.420349	154.320000
523.514038	153.980000
523.607666	153.740000
523.701355	153.300000
523.795044	153.100000
523.888733	153.040000
523.982361	153.140000
524.076050	152.700000
524.169678	153.480000
524.263367	153.140000
524.356995	152.720000
524.450684	152.800000
524.544373	152.400000
524.638062	152.100000
524.731750	152.840000
524.825378	153.140000
524.919067	152.680000
525.012695	153.160000
525.106384	152.820000
525.200012	152.600000
525.293701	152.320000
525.387329	152.840000
525.481018	152.900000
525.574646	153.140000
525.668396	152.920000
525.762024	153.580000
525.855713	153.680000
525.949341	153.240000
526.043030	153.520000
526.136658	153.620000
526.230347	153.160000
526.323975	153.020000
526.417664	152.960000
526.511292	152.700000
526.604980	152.680000
526.698608	152.500000
526.792297	152.340000
526.885925	152.620000
526.979614	152.880000
527.073303	152.760000
527.166931	152.980000
527.260620	153.320000
527.354309	153.560000
527.447998	153.700000
527.541626	153.400000
527.635315	153.460000
527.728943	153.780000
527.822632	153.760000
527.916260	153.340000
528.009949	154.060000
528.103577	153.860000
528.197266	153.260000
528.290894	153.380000
528.384583	153.400000
528.478210	153.180000
528.571899	153.720000
528.665527	153.920000
528.759216	153.760000
528.852844	154.400000
528.946533	154.100000
529.040161	153.680000
529.133850	153.440000
529.227478	153.500000
529.321167	153.640000
529.414856	154.440000
529.508484	154.800000
529.602173	154.440000
529.695801	154.340000
529.789490	153.740000
529.883057	152.920000
529.976746	152.940000
530.070374	153.680000
530.164062	153.560000
530.257690	154.060000
530.351379	154.400000
530.445007	154.100000
530.538696	153.220000
530.632324	153.680000
530.726013	153.380000
530.819641	153.320000
530.913330	153.560000
531.006958	153.720000
531.100647	153.580000
531.194275	153.440000
531.287964	153.080000
531.381592	152.840000
531.475220	153.440000
531.568848	153.380000
531.662537	153.220000
531.756226	154.040000
531.849854	153.940000
531.943542	153.640000
532.037170	152.880000
532.130859	153.380000
532.224487	152.920000
532.318176	152.720000
532.411804	153.320000
532.505432	153.840000
532.599060	153.300000
532.692749	153.020000
532.786377	153.340000
532.880066	152.240000
532.973694	151.480000
533.067383	151.760000
533.161011	151.980000
533.254639	152.060000
533.348267	152.340000
533.441956	153.320000
533.535583	153.020000
533.629272	153.260000
533.722900	152.620000
533.816589	153.000000
533.910156	153.300000
534.003845	153.160000
534.097534	153.180000
534.191162	154.340000
534.284851	154.240000
534.378479	153.520000
534.472107	153.600000
534.565735	153.320000
534.659424	153.100000
534.753052	153.040000
534.846741	153.040000
534.940369	153.900000
535.033997	153.900000
535.127625	153.580000
535.221313	154.280000
535.314941	154.580000
535.408630	153.480000
535.502197	153.900000
535.595886	153.620000
535.689514	153.000000
535.783203	153.300000
535.876831	154.300000
535.970459	154.160000
536.064087	154.080000
536.157776	154.120000
536.251404	153.760000
536.345093	153.300000
536.438721	153.240000
536.532349	153.380000
536.626038	153.220000
536.719666	153.520000
536.813293	153.160000
536.906921	153.200000
537.000610	153.680000
537.094238	153.740000
537.187866	153.260000
537.281494	153.300000
537.375183	153.400000
537.468811	152.980000
537.562439	152.840000
537.656067	152.900000
537.749756	153.360000
537.843384	153.720000
537.937012	154.060000
538.030640	153.800000
538.124329	154.260000
538.217896	154.360000
538.311584	153.920000
538.405212	153.620000
538.498901	154.240000
538.592468	154.680000
538.686157	154.200000
538.779785	153.220000
538.873413	153.280000
538.967102	152.680000
539.060730	151.600000
539.154358	152.140000
539.247986	153.060000
539.341675	153.020000
539.435242	153.140000
539.528931	153.620000
539.622559	152.980000
539.716187	153.440000
539.809814	153.580000
539.903503	153.760000
539.997070	153.460000
540.090759	153.740000
540.184387	153.540000
540.278015	153.900000
540.371643	153.960000
540.465332	154.340000
540.558899	154.020000
540.652588	153.860000
540.746216	153.540000
540.839844	153.620000
540.933472	153.480000
541.027100	153.480000
541.120728	153.400000
541.214417	153.540000
541.308044	153.680000
541.401672	153.320000
541.495300	153.320000
541.588928	153.500000
541.682617	153.100000
541.776184	152.800000
541.869873	153.440000
541.963440	153.960000
542.057129	153.740000
542.150757	153.580000
542.244385	153.020000
542.338013	152.160000
542.431641	151.500000
542.525269	151.200000
542.618958	151.840000
542.712524	152.640000
542.806213	152.820000
542.899780	153.440000
542.993469	153.520000
543.087036	153.260000
543.180725	152.740000
543.274292	152.920000
543.367981	152.960000
543.461548	153.440000
543.555237	153.200000
543.648926	153.960000
543.742493	154.740000
543.836182	154.420000
543.929749	154.040000
544.023437	154.360000
544.117004	154.400000
544.210693	154.100000
544.304260	154.480000
544.397949	154.300000
544.491516	154.560000
544.585205	154.240000
544.678772	153.780000
544.772461	154.040000
544.866028	153.900000
544.959717	153.580000
545.053284	153.080000
545.146973	153.320000
545.240540	152.920000
545.334229	153.780000
545.427795	154.100000
545.521423	154.500000
545.615051	154.160000
545.708679	154.880000
545.802307	154.440000
545.895935	154.380000
545.989624	155.320000
546.083191	155.380000
546.176880	154.620000
546.270447	154.200000
546.364136	154.460000
546.457703	153.620000
546.551331	153.800000
546.644958	153.900000
546.738586	154.720000
546.832214	154.240000
546.925842	153.960000
547.019409	153.840000
547.113098	153.520000
547.206665	152.700000
547.300354	152.680000
547.393921	153.320000
547.487549	153.480000
547.581177	153.220000
547.674805	153.460000
547.768433	152.960000
547.862061	152.780000
547.955627	152.120000
548.049316	153.040000
548.142883	153.180000
548.236572	153.840000
548.330139	153.580000
548.423767	153.760000
548.517456	153.520000
548.611023	153.820000
548.704651	153.080000
548.798279	153.460000
548.891907	154.120000
548.985474	154.000000
549.079163	153.840000
549.172729	153.960000
549.266357	153.080000
549.359985	152.780000
549.453613	152.140000
549.547180	151.720000
549.640869	152.320000
549.734436	152.700000
549.828064	153.260000
549.921631	153.460000
550.015320	153.300000
550.108887	153.620000
550.202515	153.680000
550.296143	152.840000
550.389771	152.960000
550.483337	153.180000
550.576965	152.780000
550.670593	153.380000
550.764221	153.760000
550.857849	153.440000
550.951477	153.180000
551.045105	152.740000
551.138672	152.120000
551.232300	151.620000
551.325928	152.120000
551.419556	152.380000
551.513123	152.440000
551.606750	152.280000
551.700378	152.700000
551.794006	152.480000
551.887573	152.420000
551.981201	152.840000
552.074768	152.940000
552.168457	152.640000
552.262024	153.640000
552.355652	153.560000
552.449219	153.620000
552.542847	153.680000
552.636475	153.420000
552.730103	152.140000
552.823669	152.060000
552.917297	151.780000
553.010864	151.860000
553.104553	152.540000
553.198181	152.440000
553.291748	153.360000
553.385376	153.620000
553.478943	153.280000
553.572571	153.180000
553.666199	153.840000
553.759827	153.220000
553.853394	152.640000
553.947021	152.900000
554.040588	152.680000
554.134216	152.660000
554.227783	153.140000
554.321411	154.020000
554.415039	153.600000
554.508667	153.880000
554.602234	154.020000
554.695862	153.140000
554.789429	152.820000
554.883057	152.800000
554.976624	152.340000
555.070251	152.180000
555.163818	152.360000
555.257507	152.540000
555.351074	153.100000
555.444702	154.420000
555.538330	153.920000
555.631897	154.460000
555.725525	153.900000
555.819092	153.740000
555.912720	152.520000
556.006287	153.420000
556.099915	152.920000
556.193481	153.240000
556.287109	153.360000
556.380676	153.280000
556.474304	153.120000
556.567871	153.660000
556.661499	153.220000
556.755066	153.060000
556.848694	153.460000
556.942261	153.160000
557.035889	152.980000
557.129517	153.400000
557.223145	153.960000
557.316711	153.940000
557.410339	153.980000
557.503906	153.720000
557.597473	153.880000
557.691040	153.600000
557.784668	153.420000
557.878296	153.300000
557.971863	153.580000
558.065491	153.440000
558.159058	152.960000
558.252686	153.800000
558.346252	154.760000
558.439880	154.100000
558.533447	153.740000
558.627075	153.880000
558.720642	152.800000
558.814270	152.120000
558.907837	152.420000
559.001465	152.300000
559.095032	152.740000
559.188660	153.560000
559.282227	153.140000
559.375854	153.780000
559.469360	153.740000
559.562988	154.000000
559.656555	153.460000
559.750183	153.620000
559.843750	153.620000
559.937378	153.560000
560.030945	153.340000
560.124573	0.000000
560.218140	0.000000
560.311707	0.000000
560.405334	0.000000
560.498901	0.000000
560.592529	0.000000
560.686096	0.000000
560.779724	0.000000
560.873291	0.000000
560.966858	0.000000
561.060425	0.000000
561.154053	0.000000
561.247620	0.000000
561.341248	0.000000
561.434814	0.000000
561.528381	0.000000
561.621948	0.000000
561.715576	0.000000
561.809143	0.000000
561.902771	0.000000
561.996277	0.000000
562.089905	0.000000
562.183472	0.000000
562.277100	0.000000
