Model Number: SPM-002-B   
Serial Number: 70087108
Firmware Version: 004.15.4
Exposure Time: 100000.000000us
Data Taken on: 15-01-2021 16:35:03.886
Wavelength	Amplitude
221.570786	0.000000
221.663406	0.000000
221.756027	0.000000
221.848648	0.000000
221.941269	0.000000
222.033905	0.000000
222.126526	0.000000
222.219162	0.000000
222.311798	0.000000
222.404419	0.000000
222.497055	0.000000
222.589676	0.000000
222.682312	0.000000
222.774933	0.000000
222.867569	0.000000
222.960205	0.000000
223.052841	0.000000
223.145462	0.000000
223.238098	0.000000
223.330734	0.000000
223.423386	0.000000
223.516022	0.000000
223.608658	0.000000
223.701309	0.000000
223.793945	0.000000
223.886581	0.000000
223.979218	0.000000
224.071869	0.000000
224.164505	0.000000
224.257156	0.000000
224.349792	0.000000
224.442444	0.000000
224.535095	0.000000
224.627747	0.000000
224.720398	0.000000
224.813034	0.000000
224.905685	0.000000
224.998337	153.180000
225.090988	153.000000
225.183640	152.780000
225.276291	152.460000
225.368942	152.600000
225.461594	153.280000
225.554245	153.520000
225.646912	153.520000
225.739578	154.300000
225.832230	155.100000
225.924896	154.400000
226.017548	154.720000
226.110199	155.360000
226.202866	154.240000
226.295532	153.760000
226.388184	153.560000
226.480850	152.680000
226.573517	151.960000
226.666168	152.680000
226.758835	153.020000
226.851501	153.580000
226.944183	153.840000
227.036850	153.420000
227.129517	153.480000
227.222183	153.400000
227.314850	153.560000
227.407516	153.960000
227.500198	155.040000
227.592865	154.440000
227.685532	153.880000
227.778214	153.340000
227.870880	153.520000
227.963562	153.580000
228.056229	154.220000
228.148926	154.540000
228.241592	155.540000
228.334274	155.260000
228.426956	155.140000
228.519638	155.120000
228.612305	154.720000
228.704987	154.620000
228.797668	154.580000
228.890350	153.820000
228.983032	153.320000
229.075714	154.180000
229.168396	153.460000
229.261108	153.180000
229.353790	153.460000
229.446472	153.860000
229.539169	153.480000
229.631851	153.240000
229.724533	153.440000
229.817230	153.640000
229.909912	154.340000
230.002609	154.140000
230.095306	154.420000
230.187988	154.400000
230.280685	154.180000
230.373383	153.020000
230.466095	153.080000
230.558792	153.400000
230.651474	153.400000
230.744171	153.440000
230.836868	153.460000
230.929581	153.260000
231.022278	153.060000
231.114975	153.360000
231.207672	153.180000
231.300369	153.640000
231.393082	154.300000
231.485779	154.340000
231.578506	154.060000
231.671204	154.420000
231.763916	154.440000
231.856613	154.140000
231.949326	153.900000
232.042023	153.800000
232.134735	153.580000
232.227448	152.980000
232.320160	153.160000
232.412872	153.180000
232.505585	154.200000
232.598297	154.400000
232.691010	154.700000
232.783722	154.340000
232.876450	155.020000
232.969162	154.080000
233.061874	153.740000
233.154587	153.540000
233.247314	153.540000
233.340027	152.660000
233.432739	152.980000
233.525467	153.020000
233.618179	153.620000
233.710907	153.660000
233.803635	154.080000
233.896347	153.820000
233.989090	154.800000
234.081818	154.380000
234.174545	154.600000
234.267258	154.220000
234.359985	154.580000
234.452713	153.900000
234.545441	153.920000
234.638168	153.680000
234.730896	154.320000
234.823639	153.860000
234.916367	154.220000
235.009094	154.440000
235.101822	154.500000
235.194580	154.240000
235.287308	154.580000
235.380051	154.040000
235.472778	154.100000
235.565521	154.340000
235.658249	154.140000
235.750992	153.860000
235.843719	153.940000
235.936462	154.000000
236.029205	153.460000
236.121948	153.140000
236.214691	153.900000
236.307449	154.740000
236.400192	154.320000
236.492935	154.500000
236.585678	155.000000
236.678421	154.740000
236.771164	154.300000
236.863907	154.880000
236.956665	155.060000
237.049408	156.780000
237.142151	156.060000
237.234909	156.900000
237.327652	156.660000
237.420410	156.360000
237.513153	154.800000
237.605927	155.100000
237.698669	154.180000
237.791428	153.540000
237.884186	154.000000
237.976944	153.340000
238.069702	153.540000
238.162445	152.900000
238.255203	153.260000
238.347961	153.300000
238.440720	153.500000
238.533478	153.020000
238.626266	153.000000
238.719025	153.240000
238.811783	152.980000
238.904541	153.120000
238.997314	153.420000
239.090073	153.020000
239.182831	153.240000
239.275604	153.820000
239.368362	153.520000
239.461136	153.620000
239.553909	154.060000
239.646667	153.620000
239.739441	153.140000
239.832214	153.880000
239.925003	153.980000
240.017761	154.520000
240.110535	155.240000
240.203308	154.820000
240.296082	154.840000
240.388855	154.580000
240.481628	154.640000
240.574417	154.500000
240.667191	154.820000
240.759964	154.440000
240.852737	154.480000
240.945526	153.860000
241.038315	153.500000
241.131088	153.940000
241.223877	153.960000
241.316650	153.540000
241.409439	153.940000
241.502228	153.640000
241.595001	153.760000
241.687790	153.660000
241.780579	153.960000
241.873367	154.060000
241.966141	154.680000
242.058929	153.940000
242.151718	154.160000
242.244507	154.720000
242.337311	154.020000
242.430099	154.100000
242.522903	154.500000
242.615692	154.220000
242.708481	154.000000
242.801270	154.860000
242.894073	154.740000
242.986862	154.460000
243.079651	154.940000
243.172455	154.540000
243.265244	154.160000
243.358063	153.320000
243.450867	153.940000
243.543655	153.800000
243.636459	153.840000
243.729263	154.420000
243.822067	155.140000
243.914856	155.240000
244.007660	155.060000
244.100464	155.080000
244.193268	154.300000
244.286072	153.960000
244.378876	153.060000
244.471680	152.600000
244.564499	152.680000
244.657318	153.960000
244.750122	154.140000
244.842926	154.060000
244.935745	154.780000
245.028549	154.560000
245.121368	153.300000
245.214172	153.160000
245.306992	153.480000
245.399796	153.140000
245.492615	153.640000
245.585434	153.880000
245.678253	153.880000
245.771072	153.700000
245.863892	154.060000
245.956711	154.040000
246.049530	153.680000
246.142349	153.540000
246.235168	153.840000
246.327988	154.280000
246.420807	153.700000
246.513626	153.880000
246.606445	154.140000
246.699280	154.160000
246.792099	153.480000
246.884918	153.460000
246.977753	153.380000
247.070587	153.340000
247.163422	153.060000
247.256241	153.080000
247.349075	153.640000
247.441895	153.920000
247.534729	153.560000
247.627563	153.780000
247.720383	154.460000
247.813217	154.140000
247.906052	153.720000
247.998886	154.120000
248.091736	153.840000
248.184570	153.380000
248.277405	153.180000
248.370239	154.440000
248.463074	155.120000
248.555908	155.540000
248.648743	155.160000
248.741592	155.520000
248.834427	154.820000
248.927261	153.920000
249.020111	154.200000
249.112946	154.880000
249.205795	154.360000
249.298630	154.120000
249.391495	153.960000
249.484344	153.180000
249.577179	153.080000
249.670029	153.500000
249.762878	153.920000
249.855728	154.140000
249.948563	154.500000
250.041412	153.940000
250.134262	154.020000
250.227112	153.900000
250.319962	154.000000
250.412827	153.940000
250.505692	153.700000
250.598541	153.800000
250.691391	153.780000
250.784241	153.960000
250.877106	154.220000
250.969955	154.200000
251.062805	154.500000
251.155670	154.960000
251.248520	154.620000
251.341385	154.820000
251.434235	154.720000
251.527100	154.480000
251.619965	153.660000
251.712814	154.240000
251.805695	153.960000
251.898560	154.540000
251.991425	154.520000
252.084290	154.780000
252.177155	153.940000
252.270020	153.660000
252.362885	153.760000
252.455750	153.840000
252.548615	153.460000
252.641479	153.780000
252.734360	153.580000
252.827240	153.180000
252.920105	153.280000
253.012970	153.360000
253.105850	153.220000
253.198715	152.980000
253.291595	153.120000
253.384460	152.580000
253.477341	152.720000
253.570221	153.080000
253.663086	153.140000
253.755966	154.000000
253.848846	154.300000
253.941727	154.340000
254.034592	154.000000
254.127472	153.820000
254.220367	153.340000
254.313248	153.540000
254.406128	153.360000
254.499008	153.900000
254.591904	155.000000
254.684784	155.400000
254.777664	155.160000
254.870544	154.940000
254.963440	154.720000
255.056335	154.600000
255.149216	153.860000
255.242111	154.160000
255.334991	154.620000
255.427887	154.560000
255.520767	154.360000
255.613663	154.760000
255.706558	153.960000
255.799438	153.580000
255.892334	153.360000
255.985229	153.240000
256.078125	152.940000
256.171021	153.400000
256.263916	154.100000
256.356812	154.380000
256.449707	154.760000
256.542603	154.540000
256.635498	155.280000
256.728394	154.720000
256.821289	154.600000
256.914215	154.560000
257.007080	154.640000
257.100006	154.380000
257.192932	155.140000
257.285828	155.360000
257.378723	154.860000
257.471619	154.740000
257.564545	154.080000
257.657440	153.960000
257.750336	154.200000
257.843262	154.080000
257.936157	155.440000
258.029053	155.900000
258.121979	155.560000
258.214874	155.200000
258.307800	155.060000
258.400696	153.900000
258.493622	153.760000
258.586517	153.100000
258.679443	153.320000
258.772339	153.240000
258.865265	153.000000
258.958160	152.520000
259.051086	153.840000
259.144012	153.580000
259.236938	154.400000
259.329834	154.880000
259.422791	154.880000
259.515717	153.700000
259.608612	153.480000
259.701538	153.400000
259.794464	152.940000
259.887390	153.260000
259.980316	153.520000
260.073212	153.440000
260.166138	152.480000
260.259064	153.080000
260.351990	153.480000
260.444916	153.520000
260.537842	153.860000
260.630768	154.740000
260.723694	154.580000
260.816620	154.480000
260.909546	154.460000
261.002472	154.140000
261.095398	153.780000
261.188354	153.560000
261.281281	153.140000
261.374207	153.120000
261.467133	153.840000
261.560089	153.960000
261.653015	153.420000
261.745972	153.960000
261.838867	154.580000
261.931824	154.640000
262.024780	154.300000
262.117706	155.080000
262.210663	155.240000
262.303589	154.800000
262.396515	154.660000
262.489471	155.400000
262.582397	155.160000
262.675354	154.420000
262.768280	154.280000
262.861237	153.840000
262.954163	153.840000
263.047119	154.120000
263.140045	153.920000
263.233002	154.040000
263.325958	153.980000
263.418884	153.100000
263.511841	152.980000
263.604797	153.280000
263.697723	153.280000
263.790680	153.300000
263.883636	153.960000
263.976593	153.680000
264.069550	153.940000
264.162476	153.620000
264.255463	153.960000
264.348419	153.800000
264.441376	154.080000
264.534332	153.220000
264.627289	153.340000
264.720245	153.700000
264.813202	153.220000
264.906158	153.380000
264.999115	154.340000
265.092072	154.400000
265.185028	154.700000
265.277985	155.200000
265.370941	155.060000
265.463898	154.700000
265.556854	154.400000
265.649811	153.320000
265.742798	153.320000
265.835754	153.320000
265.928711	153.740000
266.021667	154.000000
266.114655	154.700000
266.207611	155.080000
266.300568	154.660000
266.393585	154.280000
266.486511	154.580000
266.579498	153.700000
266.672485	153.440000
266.765442	153.340000
266.858429	154.020000
266.951385	153.640000
267.044342	153.980000
267.137329	154.100000
267.230316	154.460000
267.323273	153.700000
267.416260	154.420000
267.509216	154.180000
267.602203	153.980000
267.695160	154.740000
267.788147	154.860000
267.881134	154.300000
267.974091	154.640000
268.067078	154.520000
268.160065	153.680000
268.253052	153.500000
268.346008	153.480000
268.438995	153.140000
268.531982	153.160000
268.624969	153.100000
268.717987	153.560000
268.810944	153.260000
268.903961	153.640000
268.996948	153.460000
269.089905	154.000000
269.182892	154.120000
269.275879	154.880000
269.368866	154.280000
269.461853	154.700000
269.554871	154.580000
269.647858	154.440000
269.740845	154.300000
269.833832	154.900000
269.926819	154.440000
270.019806	154.300000
270.112793	153.620000
270.205811	153.900000
270.298798	153.500000
270.391785	154.220000
270.484772	153.920000
270.577789	154.220000
270.670776	153.560000
270.763763	153.760000
270.856750	153.400000
270.949768	153.100000
271.042786	153.320000
271.135773	153.100000
271.228790	153.400000
271.321808	152.920000
271.414795	152.740000
271.507782	152.340000
271.600800	152.220000
271.693817	152.060000
271.786804	152.920000
271.879822	153.600000
271.972809	153.720000
272.065826	154.600000
272.158844	154.280000
272.251831	154.480000
272.344849	154.360000
272.437866	154.180000
272.530853	153.900000
272.623871	154.180000
272.716888	153.040000
272.809906	153.340000
272.902893	153.360000
272.995911	152.760000
273.088928	152.480000
273.181946	153.000000
273.274963	152.740000
273.367981	152.900000
273.460999	153.620000
273.554047	154.420000
273.647003	155.000000
273.740051	154.740000
273.833069	155.220000
273.926086	155.240000
274.019135	154.480000
274.112152	153.720000
274.205170	153.880000
274.298187	153.940000
274.391205	153.000000
274.484222	153.240000
274.577240	153.440000
274.670258	153.700000
274.763306	153.360000
274.856323	154.420000
274.949341	154.220000
275.042358	154.460000
275.135406	154.040000
275.228424	154.040000
275.321442	153.880000
275.414490	153.880000
275.507507	154.420000
275.600525	154.960000
275.693573	154.680000
275.786591	154.080000
275.879669	154.340000
275.972656	153.740000
276.065735	153.500000
276.158752	154.400000
276.251801	155.420000
276.344818	155.820000
276.437866	155.940000
276.530884	155.680000
276.623932	154.760000
276.716980	154.460000
276.809998	154.200000
276.903046	154.100000
276.996094	154.980000
277.089111	155.560000
277.182159	156.120000
277.275208	155.580000
277.368256	155.820000
277.461304	155.500000
277.554321	154.660000
277.647369	154.260000
277.740417	154.380000
277.833466	153.900000
277.926514	153.560000
278.019562	154.440000
278.112610	153.860000
278.205688	154.120000
278.298706	154.300000
278.391785	153.980000
278.484833	153.540000
278.577881	153.420000
278.670929	153.780000
278.763977	153.760000
278.857025	154.260000
278.950073	154.100000
279.043121	154.100000
279.136169	153.700000
279.229248	153.380000
279.322296	153.340000
279.415344	153.220000
279.508392	153.300000
279.601440	153.360000
279.694519	153.580000
279.787567	153.360000
279.880615	153.360000
279.973694	153.400000
280.066742	153.400000
280.159790	153.460000
280.252869	153.380000
280.345917	153.680000
280.438995	153.980000
280.532074	153.860000
280.625122	154.200000
280.718201	155.160000
280.811279	155.140000
280.904327	154.900000
280.997406	155.280000
281.090454	154.840000
281.183533	153.940000
281.276581	154.040000
281.369659	153.740000
281.462738	153.440000
281.555786	153.820000
281.648865	154.200000
281.741943	153.860000
281.835022	154.520000
281.928070	154.400000
282.021149	153.880000
282.114227	153.580000
282.207306	153.580000
282.300385	153.720000
282.393433	153.760000
282.486511	153.800000
282.579590	154.320000
282.672668	154.920000
282.765747	154.400000
282.858856	154.460000
282.951904	154.920000
283.045013	155.000000
283.138062	154.800000
283.231171	155.040000
283.324249	155.420000
283.417328	155.180000
283.510406	154.660000
283.603485	154.640000
283.696564	154.660000
283.789642	154.600000
283.882751	154.640000
283.975830	155.380000
284.068909	155.040000
284.161987	155.400000
284.255066	154.860000
284.348175	154.940000
284.441254	154.380000
284.534332	154.980000
284.627441	154.480000
284.720520	154.180000
284.813599	154.200000
284.906708	154.280000
284.999786	153.360000
285.092896	153.100000
285.185974	154.600000
285.279053	153.640000
285.372192	153.800000
285.465240	154.980000
285.558380	155.120000
285.651459	154.320000
285.744568	155.700000
285.837677	155.280000
285.930756	154.900000
286.023865	154.980000
286.116943	154.640000
286.210052	154.440000
286.303162	154.420000
286.396240	154.340000
286.489349	154.120000
286.582458	154.760000
286.675568	154.420000
286.768646	154.400000
286.861755	154.620000
286.954865	155.420000
287.047974	154.400000
287.141083	154.520000
287.234161	154.600000
287.327271	154.260000
287.420380	154.360000
287.513519	154.540000
287.606598	154.780000
287.699738	154.860000
287.792816	154.880000
287.885956	154.440000
287.979034	154.520000
288.072174	154.420000
288.165283	154.200000
288.258392	154.400000
288.351501	153.880000
288.444611	154.180000
288.537720	154.300000
288.630859	154.540000
288.723969	154.700000
288.817078	155.400000
288.910187	155.540000
289.003296	154.640000
289.096436	154.320000
289.189545	154.060000
289.282654	153.240000
289.375763	153.580000
289.468903	154.520000
289.562012	154.700000
289.655121	154.780000
289.748260	155.400000
289.841400	155.680000
289.934509	155.460000
290.027649	155.580000
290.120728	155.420000
290.213898	155.280000
290.306976	154.560000
290.400146	154.520000
290.493256	154.220000
290.586395	154.240000
290.679535	154.500000
290.772644	154.520000
290.865784	153.840000
290.958893	153.840000
291.052032	153.780000
291.145172	153.520000
291.238281	152.980000
291.331421	153.020000
291.424561	153.600000
291.517670	153.120000
291.610809	153.240000
291.703949	153.300000
291.797089	153.920000
291.890228	153.240000
291.983337	153.400000
292.076477	153.180000
292.169617	153.860000
292.262756	153.800000
292.355927	153.980000
292.449036	154.060000
292.542206	154.260000
292.635315	154.220000
292.728485	154.520000
292.821625	154.360000
292.914764	155.760000
293.007904	155.860000
293.101044	155.620000
293.194183	155.140000
293.287323	155.320000
293.380463	154.340000
293.473602	153.820000
293.566742	153.960000
293.659882	154.320000
293.753021	154.680000
293.846191	154.300000
293.939331	154.460000
294.032471	154.620000
294.125610	154.380000
294.218781	154.340000
294.311920	154.760000
294.405060	154.940000
294.498230	154.740000
294.591370	154.800000
294.684540	154.020000
294.777679	153.420000
294.870850	153.540000
294.963959	153.360000
295.057159	153.360000
295.150299	154.160000
295.243469	154.320000
295.336609	153.860000
295.429779	154.020000
295.522919	154.080000
295.616089	153.780000
295.709229	154.660000
295.802399	154.900000
295.895569	154.580000
295.988708	154.380000
296.081879	154.640000
296.175018	153.620000
296.268188	153.560000
296.361359	154.220000
296.454529	154.460000
296.547668	154.140000
296.640839	154.600000
296.734009	154.260000
296.827179	154.400000
296.920319	154.520000
297.013519	154.500000
297.106659	154.780000
297.199860	154.840000
297.292999	154.560000
297.386200	154.160000
297.479309	154.080000
297.572510	153.700000
297.665680	153.680000
297.758850	153.600000
297.852020	153.440000
297.945190	153.300000
298.038361	153.140000
298.131531	154.420000
298.224701	154.180000
298.317871	154.020000
298.411072	153.700000
298.504242	153.740000
298.597412	152.800000
298.690582	152.960000
298.783752	153.100000
298.876923	153.900000
298.970093	153.840000
299.063293	154.120000
299.156464	154.680000
299.249634	154.980000
299.342834	155.040000
299.436005	155.700000
299.529205	155.380000
299.622345	154.980000
299.715576	154.480000
299.808716	154.080000
299.901917	153.700000
299.995117	154.220000
300.088287	154.480000
300.181488	154.520000
300.274658	154.400000
300.367828	154.300000
300.461029	154.060000
300.554199	154.020000
300.647400	154.220000
300.740601	154.760000
300.833771	154.880000
300.926971	155.060000
301.020142	154.440000
301.113342	154.440000
301.206512	154.360000
301.299713	154.600000
301.392914	154.580000
301.486084	155.060000
301.579285	155.080000
301.672516	155.460000
301.765686	154.920000
301.858887	154.560000
301.952057	154.500000
302.045288	154.740000
302.138458	154.260000
302.231659	154.420000
302.324860	154.520000
302.418060	154.180000
302.511261	153.800000
302.604462	154.300000
302.697662	154.100000
302.790863	153.880000
302.884064	153.800000
302.977264	153.980000
303.070465	153.960000
303.163666	154.760000
303.256866	155.340000
303.350067	155.380000
303.443268	155.440000
303.536469	155.140000
303.629669	154.460000
303.722870	154.220000
303.816071	154.160000
303.909271	154.140000
304.002472	153.620000
304.095673	153.380000
304.188934	152.820000
304.282104	153.800000
304.375336	153.960000
304.468506	154.100000
304.561768	154.180000
304.654968	154.640000
304.748169	153.580000
304.841370	153.240000
304.934601	153.420000
305.027802	153.220000
305.121002	153.040000
305.214233	153.280000
305.307434	153.580000
305.400665	154.460000
305.493866	154.280000
305.587097	154.520000
305.680298	154.200000
305.773499	154.500000
305.866730	153.640000
305.959930	154.620000
306.053162	154.840000
306.146393	154.800000
306.239594	153.940000
306.332825	153.780000
306.426025	153.560000
306.519287	153.100000
306.612488	153.660000
306.705719	153.900000
306.798920	154.180000
306.892181	153.700000
306.985352	153.400000
307.078613	152.600000
307.171844	153.040000
307.265045	152.740000
307.358276	152.940000
307.451508	153.320000
307.544739	154.080000
307.637970	153.700000
307.731201	153.540000
307.824402	153.880000
307.917633	154.200000
308.010864	154.420000
308.104095	154.760000
308.197327	155.000000
308.290558	154.920000
308.383789	154.460000
308.477020	154.160000
308.570251	153.420000
308.663483	153.100000
308.756714	153.040000
308.849976	153.280000
308.943176	153.600000
309.036438	153.740000
309.129639	153.860000
309.222900	153.660000
309.316101	153.440000
309.409393	152.960000
309.502625	152.880000
309.595856	153.080000
309.689087	153.220000
309.782318	153.200000
309.875580	153.560000
309.968811	153.840000
310.062042	153.680000
310.155273	153.780000
310.248535	154.200000
310.341766	153.820000
310.434998	153.760000
310.528259	153.620000
310.621490	153.580000
310.714722	153.140000
310.807983	153.260000
310.901215	153.340000
310.994476	153.640000
311.087708	153.160000
311.181000	153.420000
311.274200	153.180000
311.367462	153.080000
311.460693	152.740000
311.553986	153.840000
311.647186	154.000000
311.740479	154.600000
311.833710	154.440000
311.926971	154.740000
312.020203	153.820000
312.113464	153.520000
312.206726	152.860000
312.299957	153.440000
312.393219	153.760000
312.486481	153.800000
312.579712	153.740000
312.672974	153.800000
312.766235	153.280000
312.859497	152.880000
312.952759	152.820000
313.045990	153.840000
313.139252	153.480000
313.232513	153.920000
313.325775	153.840000
313.419037	153.780000
313.512299	152.520000
313.605530	153.480000
313.698822	153.460000
313.792053	153.560000
313.885345	153.340000
313.978577	153.640000
314.071869	152.920000
314.165131	152.980000
314.258392	153.500000
314.351654	154.120000
314.444916	153.680000
314.538177	154.220000
314.631439	154.660000
314.724701	154.300000
314.817993	154.020000
314.911255	154.560000
315.004517	154.100000
315.097778	153.700000
315.191040	153.980000
315.284302	153.920000
315.377594	153.740000
315.470856	153.900000
315.564117	153.140000
315.657379	152.400000
315.750671	152.200000
315.843933	152.360000
315.937195	152.040000
316.030518	152.320000
316.123749	152.580000
316.217041	153.680000
316.310303	153.700000
316.403595	154.040000
316.496857	154.180000
316.590149	154.660000
316.683411	153.480000
316.776703	153.220000
316.869965	153.260000
316.963257	152.940000
317.056519	151.980000
317.149811	151.960000
317.243073	151.840000
317.336365	152.080000
317.429626	152.600000
317.522919	153.400000
317.616180	153.740000
317.709473	153.620000
317.802765	153.100000
317.896027	153.120000
317.989319	153.560000
318.082611	153.500000
318.175873	153.420000
318.269165	153.560000
318.362488	153.480000
318.455750	152.840000
318.549042	153.100000
318.642303	153.740000
318.735626	153.440000
318.828888	153.340000
318.922211	153.000000
319.015472	153.700000
319.108765	153.060000
319.202057	152.940000
319.295349	153.100000
319.388641	153.420000
319.481934	152.500000
319.575226	152.880000
319.668518	153.520000
319.761810	153.600000
319.855103	153.560000
319.948395	153.800000
320.041687	153.880000
320.134979	153.520000
320.228271	153.320000
320.321564	153.180000
320.414856	153.160000
320.508148	152.280000
320.601440	152.100000
320.694763	152.120000
320.788025	152.980000
320.881348	152.880000
320.974640	153.300000
321.067963	153.060000
321.161224	153.120000
321.254547	152.160000
321.347839	152.760000
321.441162	152.760000
321.534454	153.200000
321.627747	152.700000
321.721069	153.460000
321.814362	153.340000
321.907654	153.640000
322.000946	153.680000
322.094269	154.980000
322.187561	154.420000
322.280884	154.520000
322.374176	154.440000
322.467468	155.120000
322.560791	154.440000
322.654083	155.140000
322.747406	155.000000
322.840698	155.400000
322.934021	155.180000
323.027344	155.400000
323.120636	154.940000
323.213959	154.660000
323.307251	154.000000
323.400574	153.460000
323.493866	152.860000
323.587219	152.960000
323.680511	153.520000
323.773834	153.840000
323.867157	153.980000
323.960449	154.320000
324.053772	154.140000
324.147095	154.020000
324.240387	154.500000
324.333710	154.740000
324.427032	154.960000
324.520355	154.720000
324.613647	153.820000
324.706970	153.300000
324.800293	153.140000
324.893616	153.060000
324.986938	153.700000
325.080231	153.940000
325.173553	154.500000
325.266876	155.280000
325.360199	155.400000
325.453522	154.720000
325.546875	154.740000
325.640167	154.520000
325.733521	154.020000
325.826813	154.280000
325.920166	154.460000
326.013489	154.500000
326.106812	153.760000
326.200134	153.340000
326.293457	152.260000
326.386780	152.420000
326.480103	152.260000
326.573425	152.540000
326.666748	152.740000
326.760071	153.460000
326.853424	153.320000
326.946747	153.460000
327.040070	154.220000
327.133392	154.020000
327.226715	153.500000
327.320068	153.240000
327.413391	154.060000
327.506714	153.040000
327.600037	153.080000
327.693390	153.220000
327.786713	153.360000
327.880066	152.860000
327.973358	153.480000
328.066742	153.880000
328.160034	154.180000
328.253418	154.360000
328.346710	153.800000
328.440063	153.180000
328.533417	152.700000
328.626740	152.880000
328.720093	152.620000
328.813416	152.920000
328.906769	153.540000
329.000092	153.920000
329.093445	153.880000
329.186768	153.880000
329.280121	154.600000
329.373444	154.500000
329.466797	154.300000
329.560120	154.200000
329.653473	154.120000
329.746796	153.200000
329.840149	152.660000
329.933502	152.540000
330.026825	152.420000
330.120178	152.440000
330.213562	152.700000
330.306854	153.340000
330.400238	153.460000
330.493561	153.080000
330.586945	154.020000
330.680237	154.480000
330.773621	154.480000
330.866974	154.580000
330.960327	155.100000
331.053680	154.620000
331.147003	154.520000
331.240356	154.500000
331.333710	154.680000
331.427063	154.320000
331.520416	153.960000
331.613770	153.520000
331.707123	153.480000
331.800476	153.320000
331.893829	154.220000
331.987152	154.720000
332.080505	154.920000
332.173859	154.640000
332.267212	154.340000
332.360565	153.680000
332.453918	153.320000
332.547333	153.180000
332.640656	153.320000
332.734039	153.760000
332.827362	153.480000
332.920746	153.760000
333.014069	153.940000
333.107452	154.600000
333.200806	154.620000
333.294159	155.020000
333.387543	154.520000
333.480896	153.980000
333.574249	153.400000
333.667603	153.080000
333.760956	153.000000
333.854340	153.160000
333.947693	153.540000
334.041046	153.660000
334.134430	154.040000
334.227783	153.740000
334.321136	153.640000
334.414520	153.420000
334.507874	153.560000
334.601227	153.180000
334.694611	153.360000
334.787964	153.560000
334.881348	154.060000
334.974701	153.620000
335.068085	153.740000
335.161438	153.980000
335.254822	153.600000
335.348175	153.580000
335.441559	153.580000
335.534943	154.020000
335.628296	153.620000
335.721680	153.720000
335.815033	153.820000
335.908417	154.180000
336.001770	154.000000
336.095154	154.000000
336.188538	153.840000
336.281891	153.020000
336.375275	152.400000
336.468658	151.920000
336.562012	151.920000
336.655396	152.560000
336.748779	153.200000
336.842133	153.540000
336.935516	154.000000
337.028900	153.900000
337.122284	153.560000
337.215637	153.520000
337.309021	153.500000
337.402435	153.080000
337.495789	152.920000
337.589203	152.680000
337.682526	152.460000
337.775940	152.860000
337.869324	152.960000
337.962708	152.760000
338.056091	153.660000
338.149475	153.280000
338.242859	153.200000
338.336243	153.140000
338.429626	153.740000
338.523010	153.140000
338.616394	153.340000
338.709778	153.360000
338.803162	153.780000
338.896545	153.800000
338.989929	153.440000
339.083313	153.720000
339.176697	153.300000
339.270081	153.040000
339.363464	153.320000
339.456848	153.700000
339.550232	153.260000
339.643616	153.100000
339.737030	153.040000
339.830383	152.720000
339.923828	152.880000
340.017181	152.960000
340.110596	153.240000
340.203949	153.060000
340.297363	152.940000
340.390778	152.940000
340.484161	153.200000
340.577545	153.400000
340.670959	153.720000
340.764343	153.640000
340.857727	153.620000
340.951111	153.020000
341.044525	152.940000
341.137909	152.200000
341.231293	151.920000
341.324707	151.600000
341.418091	152.580000
341.511505	152.420000
341.604889	153.240000
341.698303	153.740000
341.791687	153.760000
341.885071	153.240000
341.978485	153.180000
342.071899	153.400000
342.165283	153.500000
342.258698	153.720000
342.352081	154.160000
342.445496	154.720000
342.538879	154.420000
342.632324	154.140000
342.725708	154.380000
342.819122	153.600000
342.912506	153.320000
343.005920	153.220000
343.099335	154.040000
343.192719	153.960000
343.286133	154.420000
343.379547	154.540000
343.472931	154.440000
343.566345	153.580000
343.659760	153.660000
343.753143	153.380000
343.846558	153.120000
343.939972	153.320000
344.033386	153.900000
344.126770	153.460000
344.220184	153.860000
344.313599	154.340000
344.407043	154.400000
344.500427	153.800000
344.593872	154.360000
344.687225	153.760000
344.780670	152.880000
344.874054	152.860000
344.967499	153.520000
345.060913	153.140000
345.154327	153.140000
345.247742	153.140000
345.341156	152.700000
345.434570	152.080000
345.527985	152.240000
345.621399	152.740000
345.714813	152.820000
345.808228	153.160000
345.901642	153.020000
345.995056	152.620000
346.088470	152.500000
346.181885	152.860000
346.275299	152.640000
346.368713	152.700000
346.462128	152.800000
346.555573	152.940000
346.648987	153.240000
346.742401	153.000000
346.835815	153.720000
346.929260	153.500000
347.022644	153.400000
347.116119	153.160000
347.209503	153.440000
347.302948	153.840000
347.396362	154.480000
347.489807	154.680000
347.583221	155.140000
347.676636	155.220000
347.770050	153.920000
347.863495	153.680000
347.956909	153.420000
348.050323	152.700000
348.143768	152.600000
348.237183	152.580000
348.330597	152.640000
348.424042	153.040000
348.517456	153.600000
348.610901	153.600000
348.704315	153.660000
348.797760	153.120000
348.891174	152.580000
348.984619	152.180000
349.078033	152.480000
349.171448	153.400000
349.264923	153.720000
349.358337	153.760000
349.451782	153.700000
349.545197	153.180000
349.638641	152.420000
349.732086	152.080000
349.825500	153.040000
349.918945	152.740000
350.012390	153.320000
350.105804	153.620000
350.199249	153.900000
350.292664	153.620000
350.386108	154.100000
350.479553	154.580000
350.572968	154.500000
350.666412	154.780000
350.759857	154.520000
350.853302	154.760000
350.946716	153.800000
351.040161	153.880000
351.133606	153.660000
351.227081	153.440000
351.320465	154.180000
351.413940	154.580000
351.507355	154.880000
351.600830	154.960000
351.694244	154.680000
351.787720	153.960000
351.881104	153.660000
351.974579	153.440000
352.067993	154.080000
352.161469	154.420000
352.254883	154.280000
352.348358	154.440000
352.441803	154.300000
352.535248	153.980000
352.628693	154.180000
352.722137	154.060000
352.815582	154.320000
352.909027	154.520000
353.002472	154.340000
353.095917	154.000000
353.189362	154.220000
353.282806	153.980000
353.376251	153.940000
353.469696	153.560000
353.563141	154.560000
353.656586	154.260000
353.750061	153.860000
353.843475	153.380000
353.936981	153.920000
354.030396	152.800000
354.123871	152.740000
354.217285	154.140000
354.310760	154.700000
354.404175	154.640000
354.497681	154.740000
354.591095	154.820000
354.684570	153.320000
354.777985	153.040000
354.871490	152.560000
354.964935	153.240000
355.058380	153.120000
355.151855	153.000000
355.245300	153.520000
355.338745	154.060000
355.432220	153.620000
355.525665	153.560000
355.619110	154.160000
355.712585	153.660000
355.806030	153.160000
355.899475	152.940000
355.992950	153.520000
356.086426	154.140000
356.179871	154.140000
356.273346	154.640000
356.366791	154.940000
356.460266	154.860000
356.553711	153.880000
356.647186	154.120000
356.740631	153.380000
356.834106	152.840000
356.927551	152.900000
357.021027	153.280000
357.114471	153.240000
357.207947	153.500000
357.301422	153.880000
357.394867	153.920000
357.488342	154.220000
357.581818	154.240000
357.675262	154.620000
357.768738	154.440000
357.862213	153.380000
357.955658	153.380000
358.049133	153.120000
358.142609	153.280000
358.236053	153.180000
358.329529	153.940000
358.423035	153.820000
358.516449	153.540000
358.609955	153.980000
358.703400	154.740000
358.796906	154.580000
358.890350	153.860000
358.983826	154.360000
359.077271	153.100000
359.170776	152.640000
359.264221	152.380000
359.357727	152.980000
359.451172	153.160000
359.544647	153.580000
359.638123	153.600000
359.731598	154.380000
359.825073	154.600000
359.918549	154.320000
360.012024	154.620000
360.105499	154.220000
360.198975	153.800000
360.292450	153.960000
360.385925	153.820000
360.479401	153.140000
360.572876	153.200000
360.666351	153.640000
360.759857	153.140000
360.853302	153.320000
360.946808	153.180000
361.040253	153.520000
361.133759	152.920000
361.227203	153.200000
361.320709	152.960000
361.414154	153.840000
361.507660	153.880000
361.601105	154.460000
361.694641	155.020000
361.788086	154.880000
361.881592	155.140000
361.975067	154.940000
362.068542	154.980000
362.162018	154.660000
362.255524	154.700000
362.348999	154.520000
362.442474	154.980000
362.535950	154.300000
362.629456	153.880000
362.722931	153.460000
362.816406	153.340000
362.909882	153.360000
363.003387	153.420000
363.096863	153.740000
363.190338	154.100000
363.283875	153.740000
363.377319	153.520000
363.470825	154.180000
363.564301	153.340000
363.657806	153.760000
363.751282	153.380000
363.844788	154.200000
363.938232	153.620000
364.031769	154.800000
364.125214	154.860000
364.218750	155.980000
364.312225	154.660000
364.405731	154.780000
364.499207	154.140000
364.592712	153.800000
364.686188	153.280000
364.779694	153.660000
364.873169	153.440000
364.966675	153.320000
365.060150	153.560000
365.153656	153.880000
365.247131	153.660000
365.340637	153.960000
365.434143	154.680000
365.527618	154.660000
365.621155	153.660000
365.714600	153.820000
365.808136	154.180000
365.901611	152.860000
365.995117	152.660000
366.088593	152.880000
366.182129	153.020000
366.275604	153.080000
366.369110	153.660000
366.462585	153.520000
366.556122	154.560000
366.649567	154.460000
366.743103	154.220000
366.836609	153.860000
366.930115	154.420000
367.023590	154.080000
367.117096	153.840000
367.210602	153.500000
367.304108	154.500000
367.397614	154.760000
367.491119	154.780000
367.584595	155.260000
367.678101	155.520000
367.771606	154.780000
367.865112	153.980000
367.958649	153.060000
368.052124	152.660000
368.145660	152.520000
368.239136	153.160000
368.332672	153.580000
368.426147	154.400000
368.519684	154.060000
368.613159	154.340000
368.706696	153.920000
368.800171	153.800000
368.893707	153.700000
368.987183	153.940000
369.080719	153.860000
369.174225	153.800000
369.267731	154.220000
369.361237	154.080000
369.454742	154.540000
369.548248	154.920000
369.641754	154.460000
369.735260	153.980000
369.828766	153.120000
369.922272	153.440000
370.015808	152.940000
370.109314	152.840000
370.202820	152.700000
370.296356	154.220000
370.389832	153.540000
370.483368	153.300000
370.576874	153.220000
370.670410	153.460000
370.763885	152.400000
370.857422	152.480000
370.950928	152.220000
371.044464	153.400000
371.137939	153.520000
371.231476	154.020000
371.324982	154.680000
371.418518	155.420000
371.512024	154.920000
371.605560	154.460000
371.699066	154.540000
371.792572	153.920000
371.886108	153.820000
371.979614	153.660000
372.073120	154.360000
372.166656	154.260000
372.260162	154.440000
372.353668	154.020000
372.447205	153.780000
372.540710	153.440000
372.634277	153.120000
372.727753	153.020000
372.821320	153.140000
372.914795	153.320000
373.008362	153.040000
373.101837	153.440000
373.195404	153.340000
373.288879	153.320000
373.382446	154.200000
373.475922	154.300000
373.569489	154.820000
373.662964	155.200000
373.756531	155.260000
373.850037	154.980000
373.943573	154.660000
374.037109	153.460000
374.130615	153.580000
374.224152	153.720000
374.317657	153.220000
374.411194	154.500000
374.504730	154.840000
374.598236	154.340000
374.691772	154.080000
374.785309	154.460000
374.878815	153.260000
374.972351	153.680000
375.065887	153.660000
375.159454	154.380000
375.252930	154.000000
375.346497	154.500000
375.440002	154.780000
375.533569	154.900000
375.627045	153.980000
375.720612	154.320000
375.814117	154.360000
375.907684	153.880000
376.001160	153.760000
376.094727	153.520000
376.188232	154.000000
376.281799	154.060000
376.375336	153.940000
376.468872	154.680000
376.562408	154.900000
376.655914	154.040000
376.749451	153.720000
376.842987	154.140000
376.936523	153.580000
377.030060	153.880000
377.123596	154.520000
377.217133	154.100000
377.310669	153.680000
377.404205	154.080000
377.497772	154.420000
377.591278	153.740000
377.684845	154.820000
377.778351	155.260000
377.871918	154.680000
377.965424	153.860000
378.058990	153.540000
378.152496	152.980000
378.246063	152.960000
378.339569	153.300000
378.433136	153.640000
378.526642	154.160000
378.620209	154.080000
378.713745	153.400000
378.807312	153.660000
378.900848	153.660000
378.994385	153.920000
379.087921	153.320000
379.181458	153.880000
379.274994	152.880000
379.368530	152.920000
379.462097	152.800000
379.555634	153.460000
379.649170	153.020000
379.742706	153.420000
379.836273	153.740000
379.929810	153.540000
380.023376	153.360000
380.116882	153.260000
380.210449	153.280000
380.303986	152.680000
380.397552	152.400000
380.491058	152.540000
380.584656	152.300000
380.678162	152.620000
380.771729	152.940000
380.865265	153.660000
380.958832	153.580000
381.052368	154.100000
381.145935	154.160000
381.239471	154.540000
381.333008	154.560000
381.426575	154.580000
381.520111	154.900000
381.613647	155.020000
381.707214	154.560000
381.800751	153.860000
381.894318	154.360000
381.987854	153.640000
382.081421	153.100000
382.174988	153.380000
382.268524	153.200000
382.362091	152.880000
382.455627	154.000000
382.549194	153.980000
382.642731	153.360000
382.736298	153.320000
382.829834	152.980000
382.923401	153.160000
383.016937	153.520000
383.110504	153.960000
383.204041	154.240000
383.297607	154.560000
383.391174	153.420000
383.484741	153.760000
383.578278	153.240000
383.671844	152.820000
383.765411	152.220000
383.858948	152.580000
383.952515	152.060000
384.046051	152.660000
384.139618	153.580000
384.233185	154.140000
384.326721	154.220000
384.420288	154.840000
384.513855	154.840000
384.607422	154.640000
384.700989	154.680000
384.794525	154.120000
384.888123	153.820000
384.981659	153.760000
385.075226	153.280000
385.168762	153.000000
385.262360	153.360000
385.355896	152.300000
385.449463	152.000000
385.542999	152.240000
385.636597	152.840000
385.730164	152.860000
385.823730	153.100000
385.917267	153.040000
386.010834	153.460000
386.104401	153.360000
386.197968	153.760000
386.291534	154.240000
386.385101	154.420000
386.478668	154.300000
386.572235	154.180000
386.665802	153.560000
386.759338	153.480000
386.852905	153.200000
386.946472	152.940000
387.040070	152.820000
387.133606	152.940000
387.227203	152.720000
387.320740	153.320000
387.414337	153.100000
387.507874	153.060000
387.601471	153.160000
387.695007	152.980000
387.788605	152.860000
387.882141	153.320000
387.975739	153.360000
388.069275	153.120000
388.162872	153.620000
388.256439	153.360000
388.350037	152.820000
388.443604	152.620000
388.537170	152.920000
388.630737	153.460000
388.724304	153.460000
388.817871	153.480000
388.911438	153.620000
389.005005	153.840000
389.098602	153.780000
389.192169	153.720000
389.285736	154.540000
389.379333	154.520000
389.472870	153.740000
389.566467	153.280000
389.660034	153.360000
389.753632	152.440000
389.847168	152.780000
389.940765	153.260000
390.034332	153.440000
390.127930	152.960000
390.221466	153.040000
390.315063	152.360000
390.408630	151.460000
390.502228	150.720000
390.595795	151.500000
390.689362	151.960000
390.782959	152.500000
390.876526	153.460000
390.970093	153.400000
391.063690	153.620000
391.157257	153.480000
391.250824	153.880000
391.344421	153.420000
391.437988	154.320000
391.531555	154.320000
391.625153	154.420000
391.718750	154.300000
391.812317	154.520000
391.905914	154.020000
391.999481	153.540000
392.093079	153.500000
392.186615	153.720000
392.280243	153.640000
392.373779	153.800000
392.467407	154.340000
392.560944	154.060000
392.654572	153.140000
392.748108	153.180000
392.841736	153.240000
392.935303	152.680000
393.028900	152.620000
393.122467	153.120000
393.216064	153.100000
393.309631	152.480000
393.403229	152.300000
393.496796	152.340000
393.590393	151.340000
393.683990	151.780000
393.777557	152.720000
393.871155	153.100000
393.964722	153.660000
394.058350	154.260000
394.151917	153.980000
394.245514	153.540000
394.339081	154.060000
394.432678	154.260000
394.526245	154.320000
394.619873	153.900000
394.713409	154.180000
394.807037	153.520000
394.900604	153.260000
394.994202	153.400000
395.087769	153.800000
395.181396	153.280000
395.274994	153.960000
395.368561	153.280000
395.462158	153.520000
395.555756	153.260000
395.649353	153.920000
395.742920	153.400000
395.836517	154.320000
395.930115	153.540000
396.023712	153.840000
396.117279	153.480000
396.210876	153.180000
396.304474	153.020000
396.398071	153.700000
396.491669	153.700000
396.585266	153.560000
396.678833	153.460000
396.772461	153.220000
396.866028	152.680000
396.959656	152.960000
397.053223	153.080000
397.146851	152.980000
397.240417	152.820000
397.334015	153.640000
397.427582	153.180000
397.521210	153.000000
397.614807	153.640000
397.708405	153.980000
397.802002	153.640000
397.895599	154.100000
397.989197	154.260000
398.082794	153.980000
398.176392	154.000000
398.269989	153.800000
398.363586	153.800000
398.457184	154.420000
398.550781	154.840000
398.644379	154.540000
398.737976	154.520000
398.831573	154.680000
398.925201	154.540000
399.018768	155.400000
399.112396	156.860000
399.205963	159.760000
399.299591	162.940000
399.393158	168.440000
399.486786	176.560000
399.580353	191.000000
399.673981	218.220000
399.767578	263.180000
399.861206	325.720000
399.954773	397.180000
400.048401	459.840000
400.141998	493.640000
400.235596	490.480000
400.329193	449.640000
400.422791	384.640000
400.516418	313.900000
400.610016	254.640000
400.703613	213.500000
400.797211	187.900000
400.890808	174.100000
400.984436	167.960000
401.078033	164.800000
401.171631	161.300000
401.265259	160.040000
401.358826	159.140000
401.452484	158.080000
401.546051	157.600000
401.639679	157.080000
401.733246	156.580000
401.826904	155.920000
401.920471	155.080000
402.014099	154.560000
402.107697	154.440000
402.201324	154.520000
402.294891	154.560000
402.388550	155.040000
402.482147	154.880000
402.575745	154.620000
402.669373	153.780000
402.762970	153.520000
402.856567	153.280000
402.950195	153.600000
403.043793	153.540000
403.137390	154.720000
403.231018	153.960000
403.324615	154.900000
403.418243	154.280000
403.511841	154.740000
403.605469	154.340000
403.699066	154.940000
403.792694	154.300000
403.886292	154.380000
403.979919	154.300000
404.073517	153.940000
404.167145	154.100000
404.260712	153.960000
404.354370	154.080000
404.447937	154.060000
404.541595	154.260000
404.635162	154.540000
404.728821	154.900000
404.822418	154.300000
404.916046	154.260000
405.009644	154.500000
405.103271	154.540000
405.196899	154.000000
405.290497	154.260000
405.384125	154.520000
405.477722	153.720000
405.571350	152.940000
405.664948	153.180000
405.758575	153.120000
405.852203	152.720000
405.945801	153.320000
406.039429	153.540000
406.133057	153.180000
406.226654	153.260000
406.320312	153.340000
406.413879	153.340000
406.507538	153.580000
406.601135	153.540000
406.694763	154.080000
406.788361	153.760000
406.882019	153.360000
406.975586	153.460000
407.069244	154.160000
407.162872	154.240000
407.256470	154.340000
407.350098	154.400000
407.443726	153.900000
407.537323	153.140000
407.630951	153.100000
407.724579	152.940000
407.818207	153.440000
407.911804	153.480000
408.005432	153.680000
408.099060	153.720000
408.192688	154.300000
408.286285	153.780000
408.379913	153.740000
408.473572	153.980000
408.567169	153.140000
408.660828	152.980000
408.754395	152.980000
408.848053	153.200000
408.941650	152.840000
409.035309	152.840000
409.128906	152.720000
409.222565	152.680000
409.316132	152.840000
409.409790	153.100000
409.503387	153.040000
409.597046	153.120000
409.690674	153.440000
409.784302	153.380000
409.877930	153.260000
409.971558	153.600000
410.065186	153.520000
410.158783	153.460000
410.252411	153.460000
410.346039	153.740000
410.439667	153.780000
410.533295	154.060000
410.626923	154.240000
410.720551	153.880000
410.814209	154.420000
410.907806	154.740000
411.001465	153.840000
411.095062	153.720000
411.188721	154.040000
411.282318	153.340000
411.375977	152.600000
411.469574	153.040000
411.563232	153.000000
411.656830	152.960000
411.750488	152.920000
411.844086	152.940000
411.937744	153.340000
412.031372	153.240000
412.125000	153.160000
412.218628	153.200000
412.312256	154.100000
412.405884	154.260000
412.499512	154.200000
412.593170	154.240000
412.686798	154.320000
412.780426	153.460000
412.874054	153.460000
412.967682	153.420000
413.061310	154.080000
413.154968	154.300000
413.248566	154.520000
413.342224	154.120000
413.435852	154.040000
413.529510	153.500000
413.623108	152.840000
413.716766	152.800000
413.810364	153.140000
413.904022	153.080000
413.997650	152.580000
414.091309	153.540000
414.184906	153.480000
414.278564	153.060000
414.372192	153.340000
414.465851	153.820000
414.559479	153.080000
414.653107	154.080000
414.746735	154.080000
414.840393	154.120000
414.934021	154.300000
415.027649	154.160000
415.121277	153.640000
415.214935	154.120000
415.308563	154.080000
415.402191	153.420000
415.495850	153.600000
415.589478	153.280000
415.683136	152.960000
415.776733	153.160000
415.870422	154.120000
415.964020	153.540000
416.057678	153.500000
416.151306	153.480000
416.244965	153.480000
416.338562	153.160000
416.432251	154.120000
416.525848	154.940000
416.619507	155.140000
416.713165	155.280000
416.806793	155.220000
416.900421	155.220000
416.994080	154.420000
417.087708	154.180000
417.181366	153.380000
417.274994	153.420000
417.368622	153.380000
417.462280	153.740000
417.555908	153.780000
417.649567	153.800000
417.743195	153.880000
417.836853	153.600000
417.930481	153.660000
418.024170	153.760000
418.117767	154.720000
418.211426	154.620000
418.305054	154.860000
418.398712	154.280000
418.492340	154.200000
418.585999	154.040000
418.679626	154.020000
418.773285	153.940000
418.866913	154.660000
418.960571	154.920000
419.054230	154.680000
419.147858	154.800000
419.241516	155.020000
419.335144	154.440000
419.428802	154.200000
419.522461	154.020000
419.616089	153.520000
419.709747	153.700000
419.803375	153.940000
419.897034	153.720000
419.990662	153.640000
420.084320	154.280000
420.177979	154.380000
420.271606	154.400000
420.365295	155.200000
420.458893	155.600000
420.552582	155.760000
420.646210	155.220000
420.739868	155.080000
420.833496	154.360000
420.927155	153.720000
421.020782	153.100000
421.114471	152.820000
421.208069	152.980000
421.301758	153.240000
421.395386	153.340000
421.489044	153.340000
421.582703	153.520000
421.676361	154.040000
421.769989	153.720000
421.863647	154.320000
421.957306	154.600000
422.050934	154.800000
422.144592	154.220000
422.238251	154.160000
422.331909	153.820000
422.425537	153.480000
422.519196	153.340000
422.612854	153.280000
422.706543	153.320000
422.800140	153.520000
422.893829	153.480000
422.987457	152.980000
423.081146	152.900000
423.174744	153.640000
423.268433	153.420000
423.362061	153.600000
423.455750	153.680000
423.549347	153.900000
423.643036	153.100000
423.736664	153.640000
423.830353	153.460000
423.924011	154.020000
424.017639	153.580000
424.111298	153.640000
424.204956	153.180000
424.298615	153.700000
424.392273	153.620000
424.485931	153.840000
424.579559	153.860000
424.673218	153.740000
424.766876	153.240000
424.860535	152.860000
424.954193	152.820000
425.047882	153.300000
425.141510	153.380000
425.235199	153.400000
425.328796	153.400000
425.422485	153.280000
425.516113	152.780000
425.609802	153.080000
425.703430	153.600000
425.797119	153.780000
425.890747	154.220000
425.984436	154.440000
426.078064	154.400000
426.171753	153.940000
426.265411	153.920000
426.359070	154.020000
426.452728	153.980000
426.546356	153.660000
426.640015	153.680000
426.733673	153.500000
426.827332	152.780000
426.920990	153.480000
427.014648	153.260000
427.108307	153.360000
427.201965	154.000000
427.295624	154.760000
427.389282	153.940000
427.482941	154.380000
427.576630	154.600000
427.670258	153.960000
427.763947	153.700000
427.857574	153.980000
427.951263	154.160000
428.044922	153.580000
428.138611	153.840000
428.232239	154.360000
428.325928	154.800000
428.419556	155.080000
428.513245	155.360000
428.606903	155.580000
428.700562	154.840000
428.794220	153.960000
428.887878	153.100000
428.981537	153.020000
429.075195	152.980000
429.168854	153.600000
429.262512	154.060000
429.356201	154.580000
429.449860	154.660000
429.543518	154.660000
429.637177	154.960000
429.730835	155.180000
429.824493	154.980000
429.918182	155.240000
430.011810	154.760000
430.105530	153.900000
430.199158	153.400000
430.292847	153.380000
430.386475	153.420000
430.480164	153.620000
430.573792	153.340000
430.667511	153.560000
430.761139	153.860000
430.854828	154.300000
430.948456	154.480000
431.042145	155.200000
431.135834	154.880000
431.229492	154.920000
431.323151	154.740000
431.416809	154.640000
431.510468	154.560000
431.604156	154.660000
431.697815	154.520000
431.791473	154.000000
431.885132	153.260000
431.978821	153.780000
432.072479	154.140000
432.166138	154.660000
432.259827	154.660000
432.353485	155.640000
432.447174	155.000000
432.540802	154.900000
432.634491	154.880000
432.728149	155.320000
432.821838	155.780000
432.915466	155.780000
433.009186	155.780000
433.102814	155.140000
433.196503	154.680000
433.290131	154.260000
433.383850	154.660000
433.477509	154.940000
433.571167	155.720000
433.664856	156.240000
433.758514	156.620000
433.852173	156.720000
433.945862	156.540000
434.039520	156.040000
434.133179	155.160000
434.226868	154.700000
434.320526	153.780000
434.414185	154.100000
434.507874	153.900000
434.601562	154.700000
434.695221	154.480000
434.788910	154.860000
434.882538	154.680000
434.976257	154.480000
435.069885	154.100000
435.163574	154.460000
435.257233	154.140000
435.350922	154.020000
435.444580	153.840000
435.538269	153.780000
435.631897	154.080000
435.725616	154.820000
435.819275	155.280000
435.912964	156.180000
436.006622	156.560000
436.100311	156.340000
436.193970	155.280000
436.287628	154.620000
436.381317	154.280000
436.474976	153.920000
436.568665	153.440000
436.662323	154.040000
436.756012	154.320000
436.849670	154.280000
436.943390	154.360000
437.037018	154.420000
437.130737	154.560000
437.224365	154.300000
437.318085	154.140000
437.411713	154.100000
437.505432	154.620000
437.599060	154.860000
437.692780	155.300000
437.786407	155.160000
437.880127	155.140000
437.973755	154.780000
438.067474	154.660000
438.161133	154.460000
438.254822	154.940000
438.348480	154.580000
438.442169	155.160000
438.535828	155.140000
438.629517	154.920000
438.723175	153.880000
438.816864	154.800000
438.910553	154.000000
439.004211	153.760000
439.097900	153.200000
439.191559	154.020000
439.285248	153.060000
439.378906	153.480000
439.472626	153.320000
439.566284	153.640000
439.659973	153.740000
439.753632	153.780000
439.847321	154.140000
439.940979	154.280000
440.034698	154.460000
440.128326	153.640000
440.222046	153.760000
440.315674	152.540000
440.409393	152.500000
440.503082	152.260000
440.596741	152.860000
440.690430	152.960000
440.784088	153.420000
440.877777	152.960000
440.971466	153.080000
441.065125	152.740000
441.158813	152.860000
441.252502	153.040000
441.346161	153.520000
441.439850	154.060000
441.533539	153.760000
441.627197	153.740000
441.720886	153.440000
441.814606	153.780000
441.908234	153.840000
442.001953	154.180000
442.095612	154.160000
442.189301	154.260000
442.282959	154.260000
442.376678	153.140000
442.470306	154.140000
442.564026	153.820000
442.657684	153.900000
442.751404	153.540000
442.845032	154.660000
442.938751	153.300000
443.032440	153.660000
443.126099	153.560000
443.219788	153.980000
443.313477	153.480000
443.407166	154.260000
443.500824	154.080000
443.594513	154.320000
443.688202	153.780000
443.781891	153.460000
443.875549	152.960000
443.969238	153.160000
444.062927	153.000000
444.156647	153.060000
444.250275	153.840000
444.343994	153.860000
444.437653	153.760000
444.531372	153.920000
444.625031	153.840000
444.718719	153.180000
444.812378	153.200000
444.906097	152.900000
444.999756	152.320000
445.093445	152.200000
445.187103	152.500000
445.280823	153.040000
445.374512	152.860000
445.468201	153.180000
445.561859	153.080000
445.655548	153.040000
445.749237	152.600000
445.842926	152.900000
445.936615	153.420000
446.030304	153.560000
446.123962	153.620000
446.217651	153.600000
446.311340	153.740000
446.405029	153.220000
446.498749	153.080000
446.592407	152.840000
446.686096	153.240000
446.779755	153.380000
446.873474	153.400000
446.967133	153.720000
447.060852	153.620000
447.154510	153.340000
447.248230	152.980000
447.341858	153.000000
447.435577	152.500000
447.529236	152.120000
447.622955	151.900000
447.716644	152.460000
447.810333	152.480000
447.904022	153.160000
447.997711	153.180000
448.091400	153.640000
448.185059	153.360000
448.278748	153.620000
448.372437	153.260000
448.466125	154.140000
448.559814	153.840000
448.653503	154.400000
448.747192	154.540000
448.840912	155.140000
448.934570	154.800000
449.028290	155.180000
449.121948	154.420000
449.215637	153.840000
449.309296	153.340000
449.403015	153.500000
449.496674	153.300000
449.590393	153.640000
449.684052	153.480000
449.777771	154.100000
449.871429	153.360000
449.965149	152.980000
450.058838	152.980000
450.152527	153.700000
450.246216	153.260000
450.339905	153.640000
450.433594	153.680000
450.527283	154.400000
450.620972	154.240000
450.714661	154.180000
450.808350	154.460000
450.902039	154.900000
450.995728	154.460000
451.089417	153.840000
451.183105	153.920000
451.276794	154.400000
451.370514	153.560000
451.464172	152.320000
451.557892	152.680000
451.651550	152.860000
451.745270	152.080000
451.838928	152.020000
451.932648	152.960000
452.026306	153.280000
452.120026	152.920000
452.213684	153.320000
452.307404	153.980000
452.401062	153.860000
452.494781	153.980000
452.588470	154.140000
452.682159	153.800000
452.775848	153.520000
452.869537	153.160000
452.963226	152.440000
453.056915	152.140000
453.150604	152.160000
453.244293	152.600000
453.337982	153.260000
453.431671	154.040000
453.525360	154.940000
453.619049	155.140000
453.712769	154.980000
453.806427	154.360000
453.900146	153.820000
453.993805	153.060000
454.087555	153.180000
454.181213	153.060000
454.274933	153.240000
454.368591	153.120000
454.462311	153.300000
454.555969	152.740000
454.649689	153.860000
454.743347	153.340000
454.837067	154.200000
454.930756	154.640000
455.024445	155.000000
455.118134	154.400000
455.211853	155.040000
455.305542	154.220000
455.399231	153.800000
455.492920	153.960000
455.586609	153.520000
455.680298	153.940000
455.773987	153.740000
455.867676	153.700000
455.961365	153.880000
456.055084	153.740000
456.148773	153.200000
456.242493	153.600000
456.336151	153.680000
456.429871	153.600000
456.523529	154.040000
456.617249	153.660000
456.710907	154.160000
456.804626	153.940000
456.898315	153.440000
456.992035	153.180000
457.085693	153.340000
457.179413	152.440000
457.273102	153.420000
457.366791	153.860000
457.460480	154.360000
457.554199	154.820000
457.647888	155.140000
457.741577	154.540000
457.835266	154.560000
457.928955	154.480000
458.022644	154.740000
458.116364	155.180000
458.210052	155.280000
458.303741	155.120000
458.397461	154.300000
458.491119	153.600000
458.584839	153.280000
458.678528	152.660000
458.772247	152.020000
458.865906	152.200000
458.959625	153.140000
459.053284	153.020000
459.147003	152.940000
459.240692	153.940000
459.334412	154.120000
459.428070	153.520000
459.521790	153.560000
459.615479	153.720000
459.709198	154.140000
459.802887	153.560000
459.896576	153.440000
459.990265	153.620000
460.083954	153.880000
460.177673	152.960000
460.271362	153.520000
460.365051	153.360000
460.458740	153.000000
460.552429	152.320000
460.646149	152.260000
460.739838	151.900000
460.833527	152.240000
460.927246	152.000000
461.020905	152.420000
461.114655	152.500000
461.208313	153.020000
461.302032	152.540000
461.395691	153.220000
461.489441	153.060000
461.583099	153.140000
461.676819	152.900000
461.770477	153.120000
461.864197	152.220000
461.957916	152.440000
462.051605	151.740000
462.145294	152.940000
462.238983	153.020000
462.332703	153.920000
462.426392	154.500000
462.520081	155.040000
462.613770	153.940000
462.707489	154.340000
462.801178	154.100000
462.894867	153.500000
462.988556	153.580000
463.082275	153.860000
463.175964	153.080000
463.269684	153.360000
463.363342	153.560000
463.457092	152.980000
463.550751	153.280000
463.644470	153.780000
463.738129	153.340000
463.831879	153.340000
463.925537	154.180000
464.019257	154.000000
464.112946	154.000000
464.206665	153.820000
464.300323	153.420000
464.394043	152.980000
464.487762	152.840000
464.581451	152.980000
464.675140	153.140000
464.768829	153.940000
464.862549	153.960000
464.956238	153.960000
465.049927	153.940000
465.143646	154.220000
465.237335	153.640000
465.331024	154.240000
465.424713	154.160000
465.518433	154.160000
465.612152	153.760000
465.705811	153.800000
465.799561	153.540000
465.893219	153.260000
465.986938	153.120000
466.080597	153.120000
466.174347	153.720000
466.268005	153.620000
466.361725	153.540000
466.455414	153.620000
466.549133	153.600000
466.642792	152.980000
466.736542	152.800000
466.830231	153.220000
466.923920	152.920000
467.017609	153.000000
467.111328	152.680000
467.205017	152.620000
467.298706	152.500000
467.392426	152.660000
467.486115	153.080000
467.579803	153.240000
467.673523	153.700000
467.767212	153.740000
467.860901	153.840000
467.954651	153.940000
468.048309	154.260000
468.142029	153.880000
468.235718	153.820000
468.329437	153.500000
468.423096	153.220000
468.516846	153.060000
468.610504	152.860000
468.704224	152.560000
468.797913	152.700000
468.891632	152.880000
468.985291	152.800000
469.079010	153.140000
469.172729	153.000000
469.266418	153.300000
469.360107	153.180000
469.453827	153.020000
469.547516	153.080000
469.641205	153.680000
469.734924	153.820000
469.828613	153.960000
469.922302	154.200000
470.016022	154.060000
470.109711	153.800000
470.203430	152.880000
470.297150	152.260000
470.390808	152.480000
470.484558	152.080000
470.578217	152.480000
470.671936	153.500000
470.765625	154.540000
470.859344	154.120000
470.953003	154.540000
471.046753	154.120000
471.140411	153.340000
471.234131	153.320000
471.327820	154.240000
471.421539	154.180000
471.515228	153.760000
471.608948	154.040000
471.702637	153.340000
471.796326	152.620000
471.890045	152.880000
471.983734	153.560000
472.077423	153.100000
472.171143	153.240000
472.264832	153.100000
472.358521	152.680000
472.452240	151.980000
472.545929	152.780000
472.639648	152.640000
472.733337	153.000000
472.827057	153.280000
472.920746	153.640000
473.014465	153.560000
473.108124	153.660000
473.201874	153.900000
473.295532	153.760000
473.389252	154.240000
473.482941	154.560000
473.576660	154.200000
473.670319	153.980000
473.764069	154.320000
473.857727	154.080000
473.951477	153.940000
474.045166	154.600000
474.138855	154.440000
474.232574	154.280000
474.326263	154.400000
474.419952	154.320000
474.513672	154.300000
474.607361	153.780000
474.701050	153.700000
474.794769	154.000000
474.888458	154.320000
474.982178	154.500000
475.075867	155.100000
475.169586	155.000000
475.263275	154.420000
475.356995	154.320000
475.450653	153.540000
475.544403	153.100000
475.638062	154.160000
475.731812	153.980000
475.825470	153.540000
475.919189	153.860000
476.012878	154.020000
476.106598	152.920000
476.200256	153.180000
476.294006	153.140000
476.387695	153.380000
476.481384	153.420000
476.575104	153.840000
476.668793	153.640000
476.762512	153.260000
476.856201	153.580000
476.949890	153.300000
477.043610	152.600000
477.137299	152.640000
477.230988	153.160000
477.324707	152.780000
477.418396	153.700000
477.512146	154.380000
477.605804	154.260000
477.699524	154.400000
477.793213	154.100000
477.886932	153.320000
477.980591	152.540000
478.074341	152.380000
478.167999	151.640000
478.261749	151.920000
478.355408	152.040000
478.449127	152.840000
478.542816	154.060000
478.636536	155.020000
478.730225	155.280000
478.823944	155.820000
478.917633	155.740000
479.011322	155.620000
479.105042	155.400000
479.198730	154.940000
479.292450	154.780000
479.386139	155.020000
479.479828	155.020000
479.573547	155.220000
479.667267	155.320000
479.760925	155.240000
479.854675	155.180000
479.948334	154.660000
480.042084	153.920000
480.135742	154.100000
480.229462	153.420000
480.323151	153.320000
480.416870	152.980000
480.510529	153.400000
480.604279	152.820000
480.697937	153.500000
480.791656	152.780000
480.885345	152.460000
480.979065	152.380000
481.072754	153.200000
481.166473	153.360000
481.260132	153.620000
481.353882	153.840000
481.447540	153.800000
481.541260	153.700000
481.635010	152.980000
481.728668	152.900000
481.822388	153.060000
481.916077	153.040000
482.009796	152.900000
482.103485	153.720000
482.197205	153.940000
482.290863	154.120000
482.384613	153.880000
482.478271	153.160000
482.571991	152.920000
482.665680	152.860000
482.759399	153.460000
482.853058	153.960000
482.946808	154.580000
483.040466	154.120000
483.134216	154.200000
483.227875	153.640000
483.321594	153.940000
483.415283	153.660000
483.509003	153.760000
483.602661	153.420000
483.696411	153.440000
483.790070	153.280000
483.883789	153.380000
483.977478	153.660000
484.071198	153.960000
484.164917	153.620000
484.258606	153.080000
484.352325	153.640000
484.445984	153.840000
484.539734	153.740000
484.633392	153.520000
484.727142	153.900000
484.820801	153.500000
484.914520	153.020000
485.008209	153.320000
485.101929	153.740000
485.195587	153.300000
485.289337	152.680000
485.382996	152.960000
485.476715	152.860000
485.570404	153.300000
485.664124	153.280000
485.757782	154.420000
485.851532	153.940000
485.945190	153.660000
486.038910	153.500000
486.132599	154.080000
486.226318	153.120000
486.319977	153.100000
486.413727	153.760000
486.507446	153.200000
486.601105	152.860000
486.694855	152.860000
486.788513	152.920000
486.882233	152.660000
486.975922	153.000000
487.069641	152.740000
487.163300	153.040000
487.257050	154.060000
487.350708	153.480000
487.444427	152.980000
487.538116	153.100000
487.631836	152.820000
487.725494	152.640000
487.819214	153.120000
487.912903	153.140000
488.006622	153.520000
488.100281	153.920000
488.194031	153.640000
488.287689	153.760000
488.381409	154.680000
488.475098	154.300000
488.568817	154.380000
488.662476	154.040000
488.756226	153.520000
488.849945	152.340000
488.943604	152.460000
489.037354	152.220000
489.131012	152.300000
489.224731	152.340000
489.318390	152.740000
489.412140	152.660000
489.505798	152.600000
489.599518	152.380000
489.693207	152.840000
489.786926	152.820000
489.880585	152.740000
489.974335	152.980000
490.067993	154.140000
490.161713	154.360000
490.255371	155.040000
490.349121	155.240000
490.442780	154.860000
490.536499	153.500000
490.630188	153.240000
490.723907	152.580000
490.817566	152.720000
490.911285	153.220000
491.004974	153.520000
491.098694	153.060000
491.192413	153.860000
491.286102	153.480000
491.379822	153.180000
491.473480	153.380000
491.567200	153.760000
491.660889	152.760000
491.754608	152.960000
491.848267	153.220000
491.941986	153.140000
492.035675	152.960000
492.129395	153.620000
492.223053	153.580000
492.316772	153.500000
492.410461	153.300000
492.504181	153.540000
492.597839	153.240000
492.691559	153.560000
492.785248	153.700000
492.878967	154.000000
492.972626	153.460000
493.066345	153.340000
493.160034	152.740000
493.253754	152.440000
493.347412	151.920000
493.441132	152.340000
493.534882	152.860000
493.628540	153.140000
493.722260	153.160000
493.815918	153.540000
493.909668	153.960000
494.003326	154.160000
494.097046	154.240000
494.190704	154.320000
494.284454	154.200000
494.378113	153.820000
494.471832	153.420000
494.565491	153.320000
494.659210	153.300000
494.752899	153.440000
494.846619	153.640000
494.940277	153.760000
495.033997	153.480000
495.127686	153.260000
495.221405	152.920000
495.315063	152.600000
495.408783	152.700000
495.502441	153.160000
495.596191	153.400000
495.689850	153.520000
495.783569	153.880000
495.877228	153.780000
495.970947	153.120000
496.064697	152.900000
496.158356	153.980000
496.252075	153.760000
496.345734	153.740000
496.439453	155.000000
496.533142	155.080000
496.626862	155.000000
496.720520	154.900000
496.814240	154.960000
496.907898	154.200000
497.001617	154.440000
497.095306	153.320000
497.189026	153.460000
497.282684	153.340000
497.376404	153.880000
497.470062	153.460000
497.563782	153.760000
497.657471	153.400000
497.751190	153.300000
497.844849	152.840000
497.938568	153.400000
498.032227	153.260000
498.125946	153.440000
498.219635	153.280000
498.313354	153.340000
498.407074	152.980000
498.500732	153.460000
498.594452	153.760000
498.688110	153.460000
498.781830	152.960000
498.875519	152.920000
498.969238	152.520000
499.062897	152.180000
499.156616	152.940000
499.250275	153.280000
499.343994	153.020000
499.437653	153.020000
499.531372	153.340000
499.625061	153.880000
499.718781	153.960000
499.812439	154.300000
499.906158	154.240000
499.999817	153.900000
500.093536	152.980000
500.187195	153.140000
500.280914	153.300000
500.374573	153.580000
500.468323	153.380000
500.561981	153.580000
500.655701	152.960000
500.749420	152.760000
500.843079	153.080000
500.936798	153.120000
501.030457	153.560000
501.124176	154.300000
501.217834	154.220000
501.311554	153.840000
501.405212	153.960000
501.498962	152.800000
501.592621	152.500000
501.686340	153.060000
501.779999	153.140000
501.873718	153.480000
501.967377	154.020000
502.061096	153.920000
502.154755	153.180000
502.248474	153.160000
502.342133	153.180000
502.435852	153.480000
502.529510	154.300000
502.623230	155.180000
502.716888	154.740000
502.810608	154.600000
502.904266	154.880000
502.997986	153.880000
503.091705	153.180000
503.185364	153.300000
503.279083	153.400000
503.372772	153.020000
503.466492	152.940000
503.560150	152.960000
503.653870	153.380000
503.747528	153.240000
503.841248	153.200000
503.934906	153.340000
504.028625	152.980000
504.122284	153.220000
504.216003	154.100000
504.309662	153.820000
504.403381	154.220000
504.497040	154.520000
504.590759	153.800000
504.684418	153.580000
504.778137	154.180000
504.871796	154.520000
504.965515	154.320000
505.059174	154.620000
505.152893	153.620000
505.246521	153.340000
505.340240	152.640000
505.433899	152.900000
505.527618	153.020000
505.621338	153.740000
505.714996	153.640000
505.808716	153.800000
505.902374	154.200000
505.996094	154.540000
506.089752	154.020000
506.183472	153.940000
506.277130	154.300000
506.370850	154.040000
506.464508	153.520000
506.558228	153.780000
506.651886	153.560000
506.745605	153.220000
506.839264	153.180000
506.932983	153.160000
507.026611	153.140000
507.120331	153.720000
507.213989	153.360000
507.307709	153.460000
507.401367	153.880000
507.495087	154.520000
507.588745	153.980000
507.682465	155.280000
507.776123	155.260000
507.869843	155.020000
507.963531	154.780000
508.057190	155.180000
508.150909	153.760000
508.244568	154.260000
508.338287	153.860000
508.431946	153.380000
508.525665	153.040000
508.619324	153.460000
508.713013	153.100000
508.806671	153.660000
508.900391	154.740000
508.994049	155.000000
509.087769	154.440000
509.181427	154.260000
509.275146	153.960000
509.368774	152.920000
509.462494	152.560000
509.556152	153.100000
509.649872	153.620000
509.743530	153.580000
509.837250	153.800000
509.930878	154.080000
510.024597	154.120000
510.118256	153.600000
510.211975	153.380000
510.305695	153.000000
510.399353	153.420000
510.493042	153.840000
510.586700	153.940000
510.680420	154.820000
510.774078	154.880000
510.867798	154.860000
510.961426	153.760000
511.055145	153.980000
511.148804	153.200000
511.242523	154.000000
511.336151	154.040000
511.429871	155.060000
511.523529	154.520000
511.617249	154.500000
511.710876	153.680000
511.804596	152.900000
511.898254	152.380000
511.991974	152.920000
512.085632	152.720000
512.179321	153.040000
512.272949	153.700000
512.366699	154.200000
512.460327	153.640000
512.554077	154.880000
512.647766	154.540000
512.741394	154.300000
512.835144	154.700000
512.928772	154.580000
513.022461	154.340000
513.116150	154.180000
513.209839	154.640000
513.303467	153.660000
513.397217	153.700000
513.490845	153.100000
513.584595	152.980000
513.678223	152.140000
513.771912	151.840000
513.865601	152.160000
513.959290	152.080000
514.052917	152.340000
514.146667	153.520000
514.240295	154.140000
514.333984	154.180000
514.427673	153.880000
514.521362	154.420000
514.614990	153.340000
514.708740	153.420000
514.802368	153.640000
514.896057	154.120000
514.989746	154.740000
515.083435	154.780000
515.177124	154.920000
515.270752	154.500000
515.364502	154.280000
515.458130	153.600000
515.551819	153.660000
515.645508	153.280000
515.739197	153.380000
515.832825	153.580000
515.926575	153.380000
516.020203	153.760000
516.113892	154.680000
516.207520	154.500000
516.301270	154.400000
516.394897	154.380000
516.488586	154.420000
516.582275	153.920000
516.675964	153.520000
516.769592	153.580000
516.863281	154.480000
516.956970	154.720000
517.050659	154.340000
517.144287	154.840000
517.238037	154.760000
517.331665	153.640000
517.425354	152.880000
517.519043	152.880000
517.612732	153.300000
517.706421	153.220000
517.800049	153.280000
517.893738	153.420000
517.987427	153.320000
518.081116	152.960000
518.174744	152.740000
518.268433	153.200000
518.362122	153.580000
518.455811	153.600000
518.549438	154.060000
518.643127	155.060000
518.736816	154.580000
518.830505	154.260000
518.924133	154.220000
519.017822	153.960000
519.111511	153.100000
519.205200	153.560000
519.298828	153.540000
519.392517	153.840000
519.486206	154.200000
519.579895	154.580000
519.673523	154.140000
519.767212	154.200000
519.860901	154.280000
519.954590	153.840000
520.048279	153.520000
520.141907	153.740000
520.235596	154.580000
520.329224	154.400000
520.422974	154.340000
520.516602	154.160000
520.610291	153.640000
520.703918	153.080000
520.797607	152.820000
520.891296	152.900000
520.984985	153.400000
521.078613	153.980000
521.172302	153.220000
521.265930	154.460000
521.359680	154.380000
521.453308	154.280000
521.546997	154.180000
521.640625	154.740000
521.734314	153.760000
521.827942	154.220000
521.921692	154.340000
522.015320	154.460000
522.109009	154.300000
522.202698	154.140000
522.296326	153.640000
522.390015	153.660000
522.483704	153.500000
522.577393	153.120000
522.671021	153.020000
522.764709	152.800000
522.858337	153.220000
522.952026	153.360000
523.045654	154.200000
523.139404	155.240000
523.233032	155.500000
523.326721	154.820000
523.420349	154.780000
523.514038	154.140000
523.607666	153.820000
523.701355	153.440000
523.795044	153.440000
523.888733	153.420000
523.982361	153.820000
524.076050	153.280000
524.169678	153.980000
524.263367	153.740000
524.356995	153.420000
524.450684	153.140000
524.544373	152.940000
524.638062	152.600000
524.731750	152.720000
524.825378	152.840000
524.919067	152.520000
525.012695	152.760000
525.106384	152.460000
525.200012	152.620000
525.293701	152.580000
525.387329	153.460000
525.481018	153.700000
525.574646	153.960000
525.668396	153.760000
525.762024	153.960000
525.855713	153.780000
525.949341	153.140000
526.043030	153.200000
526.136658	153.340000
526.230347	153.120000
526.323975	152.780000
526.417664	152.980000
526.511292	153.080000
526.604980	153.140000
526.698608	153.060000
526.792297	153.320000
526.885925	153.820000
526.979614	153.960000
527.073303	153.600000
527.166931	153.900000
527.260620	153.960000
527.354309	154.140000
527.447998	154.120000
527.541626	154.200000
527.635315	154.460000
527.728943	154.800000
527.822632	154.680000
527.916260	154.480000
528.009949	154.920000
528.103577	154.480000
528.197266	153.760000
528.290894	153.760000
528.384583	153.580000
528.478210	153.360000
528.571899	153.960000
528.665527	154.180000
528.759216	154.120000
528.852844	154.660000
528.946533	154.700000
529.040161	154.420000
529.133850	154.220000
529.227478	154.480000
529.321167	154.520000
529.414856	154.980000
529.508484	155.060000
529.602173	154.800000
529.695801	154.400000
529.789490	154.060000
529.883057	153.680000
529.976746	153.740000
530.070374	154.380000
530.164062	154.320000
530.257690	154.540000
530.351379	154.480000
530.445007	154.280000
530.538696	153.880000
530.632324	154.240000
530.726013	154.140000
530.819641	154.020000
530.913330	153.920000
531.006958	153.680000
531.100647	153.440000
531.194275	153.080000
531.287964	152.900000
531.381592	152.620000
531.475220	153.080000
531.568848	152.880000
531.662537	152.940000
531.756226	153.440000
531.849854	153.540000
531.943542	153.440000
532.037170	152.980000
532.130859	153.340000
532.224487	152.960000
532.318176	152.700000
532.411804	153.160000
532.505432	153.740000
532.599060	153.400000
532.692749	153.380000
532.786377	154.100000
532.880066	153.340000
532.973694	152.960000
533.067383	153.340000
533.161011	153.360000
533.254639	153.120000
533.348267	153.200000
533.441956	153.580000
533.535583	153.380000
533.629272	153.600000
533.722900	152.860000
533.816589	153.020000
533.910156	153.100000
534.003845	152.540000
534.097534	152.740000
534.191162	154.020000
534.284851	154.080000
534.378479	153.980000
534.472107	154.620000
534.565735	154.240000
534.659424	153.900000
534.753052	154.000000
534.846741	153.720000
534.940369	154.320000
535.033997	154.220000
535.127625	154.120000
535.221313	154.460000
535.314941	154.160000
535.408630	153.120000
535.502197	153.660000
535.595886	153.400000
535.689514	152.840000
535.783203	153.580000
535.876831	154.240000
535.970459	153.880000
536.064087	153.420000
536.157776	153.340000
536.251404	153.260000
536.345093	153.020000
536.438721	153.280000
536.532349	153.700000
536.626038	153.980000
536.719666	154.000000
536.813293	153.520000
536.906921	153.360000
537.000610	153.880000
537.094238	153.700000
537.187866	153.560000
537.281494	153.580000
537.375183	153.580000
537.468811	153.060000
537.562439	153.140000
537.656067	153.060000
537.749756	153.460000
537.843384	154.160000
537.937012	154.340000
538.030640	154.060000
538.124329	154.180000
538.217896	154.320000
538.311584	153.660000
538.405212	153.460000
538.498901	153.860000
538.592468	154.420000
538.686157	153.860000
538.779785	153.320000
538.873413	153.440000
538.967102	153.180000
539.060730	152.440000
539.154358	153.020000
539.247986	153.560000
539.341675	153.280000
539.435242	153.300000
539.528931	153.460000
539.622559	152.720000
539.716187	153.340000
539.809814	153.640000
539.903503	153.660000
539.997070	153.560000
540.090759	154.260000
540.184387	153.940000
540.278015	154.360000
540.371643	154.580000
540.465332	154.820000
540.558899	154.340000
540.652588	154.200000
540.746216	153.540000
540.839844	153.740000
540.933472	153.580000
541.027100	153.820000
541.120728	154.120000
541.214417	154.520000
541.308044	154.780000
541.401672	154.660000
541.495300	154.240000
541.588928	153.580000
541.682617	153.180000
541.776184	152.620000
541.869873	153.060000
541.963440	153.640000
542.057129	153.540000
542.150757	153.780000
542.244385	153.240000
542.338013	152.380000
542.431641	152.020000
542.525269	152.360000
542.618958	152.780000
542.712524	153.560000
542.806213	153.760000
542.899780	153.980000
542.993469	153.520000
543.087036	153.320000
543.180725	152.680000
543.274292	153.220000
543.367981	153.540000
543.461548	154.160000
543.555237	154.080000
543.648926	154.660000
543.742493	155.240000
543.836182	155.040000
543.929749	154.660000
544.023437	154.800000
544.117004	154.920000
544.210693	154.320000
544.304260	154.260000
544.397949	154.180000
544.491516	154.240000
544.585205	154.100000
544.678772	153.720000
544.772461	154.040000
544.866028	154.140000
544.959717	154.100000
545.053284	153.660000
545.146973	154.380000
545.240540	154.180000
545.334229	154.800000
545.427795	154.840000
545.521423	155.220000
545.615051	154.740000
545.708679	155.060000
545.802307	154.560000
545.895935	154.900000
545.989624	155.560000
546.083191	155.580000
546.176880	155.380000
546.270447	155.100000
546.364136	154.820000
546.457703	153.960000
546.551331	154.040000
546.644958	154.200000
546.738586	154.740000
546.832214	154.520000
546.925842	154.860000
547.019409	155.220000
547.113098	154.560000
547.206665	154.040000
547.300354	153.940000
547.393921	153.900000
547.487549	153.940000
547.581177	153.820000
547.674805	153.840000
547.768433	153.360000
547.862061	153.320000
547.955627	152.420000
548.049316	153.340000
548.142883	153.720000
548.236572	154.360000
548.330139	154.520000
548.423767	154.840000
548.517456	154.080000
548.611023	154.160000
548.704651	153.580000
548.798279	153.480000
548.891907	154.000000
548.985474	154.160000
549.079163	154.280000
549.172729	154.240000
549.266357	153.760000
549.359985	153.640000
549.453613	153.280000
549.547180	152.920000
549.640869	153.500000
549.734436	153.300000
549.828064	153.600000
549.921631	153.740000
550.015320	153.380000
550.108887	153.880000
550.202515	154.120000
550.296143	153.280000
550.389771	153.600000
550.483337	154.040000
550.576965	153.280000
550.670593	153.780000
550.764221	154.100000
550.857849	153.980000
550.951477	153.500000
551.045105	153.540000
551.138672	153.400000
551.232300	153.160000
551.325928	153.760000
551.419556	154.240000
551.513123	154.440000
551.606750	153.920000
551.700378	154.000000
551.794006	153.420000
551.887573	153.200000
551.981201	153.240000
552.074768	153.700000
552.168457	153.680000
552.262024	154.680000
552.355652	154.900000
552.449219	155.280000
552.542847	154.980000
552.636475	154.780000
552.730103	153.480000
552.823669	153.220000
552.917297	152.500000
553.010864	152.600000
553.104553	153.100000
553.198181	153.120000
553.291748	153.700000
553.385376	153.960000
553.478943	153.780000
553.572571	153.900000
553.666199	154.460000
553.759827	153.880000
553.853394	153.600000
553.947021	153.880000
554.040588	153.820000
554.134216	153.700000
554.227783	154.460000
554.321411	155.200000
554.415039	154.900000
554.508667	154.440000
554.602234	154.440000
554.695862	153.820000
554.789429	153.200000
554.883057	153.100000
554.976624	153.480000
555.070251	153.440000
555.163818	153.360000
555.257507	153.680000
555.351074	154.100000
555.444702	155.060000
555.538330	154.580000
555.631897	154.820000
555.725525	154.480000
555.819092	154.280000
555.912720	152.860000
556.006287	153.580000
556.099915	153.440000
556.193481	153.660000
556.287109	154.000000
556.380676	154.020000
556.474304	153.960000
556.567871	154.320000
556.661499	153.940000
556.755066	153.620000
556.848694	154.080000
556.942261	153.380000
557.035889	153.220000
557.129517	153.840000
557.223145	154.380000
557.316711	154.040000
557.410339	154.480000
557.503906	154.420000
557.597473	154.580000
557.691040	154.040000
557.784668	154.080000
557.878296	153.940000
557.971863	153.920000
558.065491	153.680000
558.159058	153.660000
558.252686	154.580000
558.346252	155.540000
558.439880	154.980000
558.533447	154.540000
558.627075	154.480000
558.720642	153.760000
558.814270	153.360000
558.907837	153.760000
559.001465	153.460000
559.095032	154.080000
559.188660	154.220000
559.282227	153.600000
559.375854	153.920000
559.469360	153.980000
559.562988	154.140000
559.656555	153.980000
559.750183	154.440000
559.843750	154.480000
559.937378	154.680000
560.030945	154.320000
560.124573	0.000000
560.218140	0.000000
560.311707	0.000000
560.405334	0.000000
560.498901	0.000000
560.592529	0.000000
560.686096	0.000000
560.779724	0.000000
560.873291	0.000000
560.966858	0.000000
561.060425	0.000000
561.154053	0.000000
561.247620	0.000000
561.341248	0.000000
561.434814	0.000000
561.528381	0.000000
561.621948	0.000000
561.715576	0.000000
561.809143	0.000000
561.902771	0.000000
561.996277	0.000000
562.089905	0.000000
562.183472	0.000000
562.277100	0.000000
