Model Number: SPM-002-B   
Serial Number: 70087108
Firmware Version: 004.15.4
Exposure Time: 100000.000000us
Data Taken on: 15-01-2021 16:35:52.645
Wavelength	Amplitude
221.570786	0.000000
221.663406	0.000000
221.756027	0.000000
221.848648	0.000000
221.941269	0.000000
222.033905	0.000000
222.126526	0.000000
222.219162	0.000000
222.311798	0.000000
222.404419	0.000000
222.497055	0.000000
222.589676	0.000000
222.682312	0.000000
222.774933	0.000000
222.867569	0.000000
222.960205	0.000000
223.052841	0.000000
223.145462	0.000000
223.238098	0.000000
223.330734	0.000000
223.423386	0.000000
223.516022	0.000000
223.608658	0.000000
223.701309	0.000000
223.793945	0.000000
223.886581	0.000000
223.979218	0.000000
224.071869	0.000000
224.164505	0.000000
224.257156	0.000000
224.349792	0.000000
224.442444	0.000000
224.535095	0.000000
224.627747	0.000000
224.720398	0.000000
224.813034	0.000000
224.905685	0.000000
224.998337	153.000000
225.090988	153.040000
225.183640	152.820000
225.276291	152.620000
225.368942	152.880000
225.461594	153.340000
225.554245	153.480000
225.646912	153.800000
225.739578	154.380000
225.832230	155.200000
225.924896	154.200000
226.017548	154.260000
226.110199	154.880000
226.202866	153.980000
226.295532	153.520000
226.388184	153.420000
226.480850	152.860000
226.573517	152.400000
226.666168	152.520000
226.758835	152.620000
226.851501	153.260000
226.944183	153.820000
227.036850	153.320000
227.129517	153.340000
227.222183	153.480000
227.314850	153.460000
227.407516	153.180000
227.500198	154.180000
227.592865	153.900000
227.685532	153.520000
227.778214	153.260000
227.870880	153.740000
227.963562	153.760000
228.056229	154.460000
228.148926	154.560000
228.241592	155.620000
228.334274	155.080000
228.426956	154.700000
228.519638	154.600000
228.612305	154.240000
228.704987	153.520000
228.797668	153.800000
228.890350	153.320000
228.983032	152.740000
229.075714	153.440000
229.168396	153.180000
229.261108	152.960000
229.353790	153.460000
229.446472	153.880000
229.539169	153.740000
229.631851	153.600000
229.724533	153.700000
229.817230	153.440000
229.909912	154.380000
230.002609	154.240000
230.095306	154.340000
230.187988	154.460000
230.280685	154.340000
230.373383	153.040000
230.466095	153.020000
230.558792	153.160000
230.651474	152.900000
230.744171	152.700000
230.836868	152.980000
230.929581	153.100000
231.022278	153.160000
231.114975	153.580000
231.207672	153.840000
231.300369	154.320000
231.393082	154.360000
231.485779	154.220000
231.578506	153.720000
231.671204	153.820000
231.763916	153.380000
231.856613	153.140000
231.949326	153.280000
232.042023	153.040000
232.134735	153.140000
232.227448	152.760000
232.320160	152.960000
232.412872	153.020000
232.505585	154.300000
232.598297	154.520000
232.691010	154.640000
232.783722	154.460000
232.876450	154.840000
232.969162	154.040000
233.061874	153.620000
233.154587	153.380000
233.247314	153.700000
233.340027	152.800000
233.432739	153.120000
233.525467	152.840000
233.618179	153.120000
233.710907	152.900000
233.803635	153.740000
233.896347	153.400000
233.989090	154.020000
234.081818	154.320000
234.174545	154.240000
234.267258	153.660000
234.359985	153.780000
234.452713	153.360000
234.545441	153.220000
234.638168	153.200000
234.730896	153.620000
234.823639	153.340000
234.916367	153.800000
235.009094	154.160000
235.101822	154.360000
235.194580	154.160000
235.287308	154.640000
235.380051	154.320000
235.472778	154.200000
235.565521	154.480000
235.658249	153.940000
235.750992	153.980000
235.843719	153.920000
235.936462	153.960000
236.029205	153.500000
236.121948	153.620000
236.214691	153.820000
236.307449	154.480000
236.400192	153.920000
236.492935	153.700000
236.585678	154.160000
236.678421	154.060000
236.771164	153.780000
236.863907	154.720000
236.956665	155.140000
237.049408	156.620000
237.142151	155.940000
237.234909	156.660000
237.327652	156.220000
237.420410	155.880000
237.513153	154.820000
237.605927	154.860000
237.698669	153.960000
237.791428	153.600000
237.884186	153.920000
237.976944	153.280000
238.069702	153.480000
238.162445	153.040000
238.255203	153.100000
238.347961	153.460000
238.440720	153.480000
238.533478	153.400000
238.626266	153.280000
238.719025	153.380000
238.811783	152.840000
238.904541	152.800000
238.997314	152.580000
239.090073	152.480000
239.182831	152.960000
239.275604	154.060000
239.368362	154.180000
239.461136	154.680000
239.553909	155.120000
239.646667	154.780000
239.739441	153.820000
239.832214	154.100000
239.925003	154.160000
240.017761	154.660000
240.110535	154.960000
240.203308	154.780000
240.296082	154.680000
240.388855	154.420000
240.481628	154.420000
240.574417	154.540000
240.667191	154.680000
240.759964	154.500000
240.852737	154.420000
240.945526	153.960000
241.038315	153.660000
241.131088	153.860000
241.223877	154.060000
241.316650	153.540000
241.409439	153.960000
241.502228	153.580000
241.595001	153.920000
241.687790	153.560000
241.780579	154.060000
241.873367	154.260000
241.966141	154.600000
242.058929	154.160000
242.151718	154.640000
242.244507	155.160000
242.337311	154.280000
242.430099	154.460000
242.522903	154.680000
242.615692	154.040000
242.708481	153.880000
242.801270	154.360000
242.894073	154.180000
242.986862	154.360000
243.079651	155.000000
243.172455	154.560000
243.265244	154.720000
243.358063	154.360000
243.450867	154.240000
243.543655	154.160000
243.636459	154.100000
243.729263	154.180000
243.822067	154.520000
243.914856	154.780000
244.007660	154.560000
244.100464	155.060000
244.193268	154.540000
244.286072	154.420000
244.378876	153.600000
244.471680	153.460000
244.564499	153.640000
244.657318	154.300000
244.750122	154.460000
244.842926	154.140000
244.935745	154.480000
245.028549	153.960000
245.121368	153.460000
245.214172	153.180000
245.306992	153.960000
245.399796	153.380000
245.492615	153.640000
245.585434	153.560000
245.678253	153.560000
245.771072	153.180000
245.863892	154.180000
245.956711	154.260000
246.049530	154.120000
246.142349	154.180000
246.235168	154.540000
246.327988	154.460000
246.420807	154.280000
246.513626	154.420000
246.606445	154.320000
246.699280	154.060000
246.792099	153.960000
246.884918	153.600000
246.977753	153.640000
247.070587	153.780000
247.163422	153.760000
247.256241	153.460000
247.349075	154.100000
247.441895	154.040000
247.534729	153.840000
247.627563	153.820000
247.720383	154.280000
247.813217	153.800000
247.906052	153.940000
247.998886	154.220000
248.091736	154.020000
248.184570	153.380000
248.277405	153.300000
248.370239	154.100000
248.463074	154.940000
248.555908	155.380000
248.648743	155.600000
248.741592	156.080000
248.834427	155.200000
248.927261	154.060000
249.020111	154.440000
249.112946	155.140000
249.205795	154.500000
249.298630	154.520000
249.391495	154.620000
249.484344	154.080000
249.577179	153.620000
249.670029	154.240000
249.762878	154.880000
249.855728	155.000000
249.948563	154.980000
250.041412	154.520000
250.134262	154.160000
250.227112	154.080000
250.319962	154.300000
250.412827	154.280000
250.505692	153.920000
250.598541	154.060000
250.691391	153.360000
250.784241	153.180000
250.877106	153.340000
250.969955	153.260000
251.062805	153.900000
251.155670	154.700000
251.248520	154.320000
251.341385	154.460000
251.434235	154.600000
251.527100	153.700000
251.619965	153.280000
251.712814	154.260000
251.805695	154.360000
251.898560	154.820000
251.991425	155.340000
252.084290	155.200000
252.177155	154.540000
252.270020	153.920000
252.362885	153.680000
252.455750	153.560000
252.548615	153.360000
252.641479	153.340000
252.734360	153.560000
252.827240	153.660000
252.920105	153.820000
253.012970	153.640000
253.105850	153.200000
253.198715	152.960000
253.291595	152.880000
253.384460	152.120000
253.477341	152.160000
253.570221	152.880000
253.663086	152.640000
253.755966	153.340000
253.848846	153.700000
253.941727	153.940000
254.034592	153.440000
254.127472	153.220000
254.220367	153.080000
254.313248	153.380000
254.406128	153.220000
254.499008	153.660000
254.591904	154.640000
254.684784	155.040000
254.777664	155.080000
254.870544	154.960000
254.963440	154.860000
255.056335	154.820000
255.149216	154.000000
255.242111	154.280000
255.334991	154.580000
255.427887	154.680000
255.520767	154.640000
255.613663	154.960000
255.706558	154.080000
255.799438	154.120000
255.892334	153.720000
255.985229	153.660000
256.078125	153.240000
256.171021	153.500000
256.263916	153.940000
256.356812	154.400000
256.449707	154.420000
256.542603	154.200000
256.635498	154.780000
256.728394	154.500000
256.821289	154.280000
256.914215	154.720000
257.007080	155.160000
257.100006	155.000000
257.192932	155.300000
257.285828	155.620000
257.378723	154.920000
257.471619	154.960000
257.564545	154.280000
257.657440	154.080000
257.750336	154.260000
257.843262	154.260000
257.936157	155.000000
258.029053	155.700000
258.121979	155.640000
258.214874	155.140000
258.307800	154.840000
258.400696	153.840000
258.493622	153.580000
258.586517	152.620000
258.679443	153.100000
258.772339	153.060000
258.865265	153.160000
258.958160	152.820000
259.051086	154.120000
259.144012	153.420000
259.236938	154.460000
259.329834	154.460000
259.422791	154.420000
259.515717	153.640000
259.608612	153.480000
259.701538	153.260000
259.794464	153.140000
259.887390	152.980000
259.980316	152.880000
260.073212	152.720000
260.166138	151.720000
260.259064	152.340000
260.351990	153.240000
260.444916	153.380000
260.537842	154.200000
260.630768	154.880000
260.723694	154.400000
260.816620	154.120000
260.909546	154.140000
261.002472	153.640000
261.095398	153.400000
261.188354	153.480000
261.281281	153.160000
261.374207	153.200000
261.467133	154.100000
261.560089	154.220000
261.653015	153.940000
261.745972	154.640000
261.838867	155.040000
261.931824	154.820000
262.024780	154.340000
262.117706	154.620000
262.210663	154.460000
262.303589	153.980000
262.396515	153.720000
262.489471	154.820000
262.582397	154.580000
262.675354	153.940000
262.768280	154.280000
262.861237	154.300000
262.954163	153.940000
263.047119	154.280000
263.140045	154.060000
263.233002	153.820000
263.325958	153.660000
263.418884	153.220000
263.511841	153.140000
263.604797	153.440000
263.697723	153.740000
263.790680	153.700000
263.883636	154.200000
263.976593	154.060000
264.069550	154.440000
264.162476	154.140000
264.255463	154.360000
264.348419	154.160000
264.441376	154.720000
264.534332	153.980000
264.627289	153.940000
264.720245	154.160000
264.813202	153.660000
264.906158	153.540000
264.999115	154.380000
265.092072	154.780000
265.185028	155.240000
265.277985	155.720000
265.370941	155.220000
265.463898	154.380000
265.556854	153.960000
265.649811	152.820000
265.742798	152.540000
265.835754	152.660000
265.928711	153.680000
266.021667	153.860000
266.114655	154.340000
266.207611	154.740000
266.300568	154.060000
266.393585	153.320000
266.486511	153.400000
266.579498	152.500000
266.672485	152.560000
266.765442	153.100000
266.858429	153.620000
266.951385	153.240000
267.044342	154.040000
267.137329	153.640000
267.230316	153.880000
267.323273	153.660000
267.416260	154.480000
267.509216	154.360000
267.602203	154.660000
267.695160	154.960000
267.788147	154.880000
267.881134	154.060000
267.974091	153.960000
268.067078	153.780000
268.160065	153.500000
268.253052	153.220000
268.346008	153.500000
268.438995	153.020000
268.531982	153.140000
268.624969	152.700000
268.717987	153.220000
268.810944	152.940000
268.903961	153.680000
268.996948	153.140000
269.089905	153.860000
269.182892	153.980000
269.275879	154.500000
269.368866	153.860000
269.461853	154.460000
269.554871	154.100000
269.647858	153.780000
269.740845	153.880000
269.833832	154.380000
269.926819	153.820000
270.019806	153.940000
270.112793	153.520000
270.205811	153.580000
270.298798	153.520000
270.391785	154.360000
270.484772	154.200000
270.577789	154.640000
270.670776	154.020000
270.763763	154.100000
270.856750	153.920000
270.949768	153.580000
271.042786	153.400000
271.135773	153.520000
271.228790	153.660000
271.321808	153.420000
271.414795	153.340000
271.507782	153.060000
271.600800	152.700000
271.693817	152.820000
271.786804	153.020000
271.879822	153.440000
271.972809	153.680000
272.065826	154.660000
272.158844	154.120000
272.251831	154.500000
272.344849	154.400000
272.437866	154.100000
272.530853	153.980000
272.623871	154.320000
272.716888	153.240000
272.809906	153.460000
272.902893	153.740000
272.995911	153.160000
273.088928	152.900000
273.181946	153.460000
273.274963	153.220000
273.367981	153.160000
273.460999	153.420000
273.554047	153.860000
273.647003	154.280000
273.740051	154.520000
273.833069	154.940000
273.926086	155.020000
274.019135	154.560000
274.112152	154.300000
274.205170	154.320000
274.298187	154.600000
274.391205	153.840000
274.484222	154.040000
274.577240	153.860000
274.670258	153.740000
274.763306	153.260000
274.856323	154.260000
274.949341	154.480000
275.042358	154.920000
275.135406	154.640000
275.228424	154.660000
275.321442	154.280000
275.414490	153.920000
275.507507	153.760000
275.600525	154.260000
275.693573	154.180000
275.786591	153.780000
275.879669	153.920000
275.972656	153.800000
276.065735	153.440000
276.158752	154.260000
276.251801	155.060000
276.344818	155.140000
276.437866	155.120000
276.530884	155.080000
276.623932	153.640000
276.716980	153.500000
276.809998	153.460000
276.903046	153.360000
276.996094	154.380000
277.089111	155.400000
277.182159	155.800000
277.275208	155.560000
277.368256	155.820000
277.461304	155.180000
277.554321	154.480000
277.647369	154.240000
277.740417	154.280000
277.833466	153.960000
277.926514	153.720000
278.019562	154.380000
278.112610	153.680000
278.205688	154.020000
278.298706	154.100000
278.391785	154.020000
278.484833	153.520000
278.577881	153.640000
278.670929	153.660000
278.763977	153.540000
278.857025	153.940000
278.950073	153.780000
279.043121	153.580000
279.136169	153.380000
279.229248	153.240000
279.322296	153.060000
279.415344	153.100000
279.508392	153.380000
279.601440	153.240000
279.694519	153.300000
279.787567	153.100000
279.880615	153.040000
279.973694	152.740000
280.066742	153.000000
280.159790	153.100000
280.252869	153.240000
280.345917	153.700000
280.438995	154.080000
280.532074	154.140000
280.625122	154.800000
280.718201	155.580000
280.811279	155.440000
280.904327	155.300000
280.997406	155.220000
281.090454	154.820000
281.183533	153.700000
281.276581	153.660000
281.369659	153.120000
281.462738	153.020000
281.555786	152.960000
281.648865	153.240000
281.741943	153.360000
281.835022	154.440000
281.928070	154.340000
282.021149	154.260000
282.114227	154.320000
282.207306	154.020000
282.300385	154.120000
282.393433	154.440000
282.486511	154.780000
282.579590	155.180000
282.672668	155.660000
282.765747	154.760000
282.858856	154.240000
282.951904	154.060000
283.045013	153.780000
283.138062	153.940000
283.231171	154.660000
283.324249	155.380000
283.417328	155.160000
283.510406	154.960000
283.603485	154.680000
283.696564	154.240000
283.789642	153.860000
283.882751	154.000000
283.975830	154.920000
284.068909	154.680000
284.161987	155.240000
284.255066	154.820000
284.348175	154.800000
284.441254	154.080000
284.534332	154.760000
284.627441	154.060000
284.720520	153.860000
284.813599	154.000000
284.906708	154.100000
284.999786	153.180000
285.092896	153.180000
285.185974	154.520000
285.279053	153.960000
285.372192	154.260000
285.465240	155.320000
285.558380	155.480000
285.651459	154.960000
285.744568	156.140000
285.837677	155.720000
285.930756	155.180000
286.023865	155.140000
286.116943	154.580000
286.210052	154.360000
286.303162	154.160000
286.396240	153.880000
286.489349	153.640000
286.582458	154.260000
286.675568	153.820000
286.768646	153.860000
286.861755	154.460000
286.954865	155.260000
287.047974	154.640000
287.141083	154.360000
287.234161	154.320000
287.327271	154.040000
287.420380	154.280000
287.513519	154.300000
287.606598	154.680000
287.699738	155.100000
287.792816	154.740000
287.885956	154.280000
287.979034	154.360000
288.072174	154.120000
288.165283	153.700000
288.258392	154.280000
288.351501	153.840000
288.444611	154.200000
288.537720	154.540000
288.630859	154.400000
288.723969	154.080000
288.817078	154.700000
288.910187	154.500000
289.003296	153.700000
289.096436	153.440000
289.189545	153.320000
289.282654	152.480000
289.375763	152.900000
289.468903	153.620000
289.562012	154.040000
289.655121	153.880000
289.748260	154.280000
289.841400	154.300000
289.934509	154.080000
290.027649	154.300000
290.120728	154.380000
290.213898	154.200000
290.306976	153.840000
290.400146	154.060000
290.493256	153.600000
290.586395	153.820000
290.679535	154.240000
290.772644	153.960000
290.865784	153.220000
290.958893	153.080000
291.052032	153.100000
291.145172	153.100000
291.238281	152.900000
291.331421	153.060000
291.424561	153.840000
291.517670	153.520000
291.610809	153.500000
291.703949	153.500000
291.797089	154.000000
291.890228	153.580000
291.983337	153.420000
292.076477	153.060000
292.169617	153.640000
292.262756	153.160000
292.355927	152.980000
292.449036	153.080000
292.542206	153.160000
292.635315	153.120000
292.728485	153.640000
292.821625	153.440000
292.914764	154.520000
293.007904	154.860000
293.101044	154.940000
293.194183	154.560000
293.287323	154.920000
293.380463	153.980000
293.473602	153.680000
293.566742	153.900000
293.659882	154.360000
293.753021	154.680000
293.846191	154.520000
293.939331	154.320000
294.032471	154.000000
294.125610	153.880000
294.218781	153.840000
294.311920	154.860000
294.405060	155.100000
294.498230	154.960000
294.591370	154.960000
294.684540	154.340000
294.777679	153.380000
294.870850	153.720000
294.963959	153.820000
295.057159	153.520000
295.150299	153.860000
295.243469	153.880000
295.336609	153.220000
295.429779	153.180000
295.522919	153.440000
295.616089	153.460000
295.709229	154.080000
295.802399	154.640000
295.895569	154.320000
295.988708	154.040000
296.081879	154.200000
296.175018	153.520000
296.268188	153.260000
296.361359	154.080000
296.454529	154.480000
296.547668	154.220000
296.640839	154.760000
296.734009	154.520000
296.827179	154.280000
296.920319	154.300000
297.013519	154.380000
297.106659	154.560000
297.199860	154.520000
297.292999	154.620000
297.386200	154.360000
297.479309	154.240000
297.572510	153.600000
297.665680	153.700000
297.758850	153.520000
297.852020	153.380000
297.945190	153.400000
298.038361	153.620000
298.131531	154.380000
298.224701	154.060000
298.317871	153.760000
298.411072	153.160000
298.504242	153.040000
298.597412	152.420000
298.690582	152.600000
298.783752	152.940000
298.876923	153.880000
298.970093	153.700000
299.063293	154.160000
299.156464	154.500000
299.249634	154.640000
299.342834	154.580000
299.436005	155.020000
299.529205	154.500000
299.622345	154.180000
299.715576	153.720000
299.808716	153.300000
299.901917	153.080000
299.995117	153.600000
300.088287	153.800000
300.181488	153.740000
300.274658	153.780000
300.367828	153.940000
300.461029	153.720000
300.554199	153.940000
300.647400	154.100000
300.740601	154.620000
300.833771	154.440000
300.926971	154.560000
301.020142	154.080000
301.113342	154.200000
301.206512	154.040000
301.299713	154.420000
301.392914	154.280000
301.486084	154.480000
301.579285	154.740000
301.672516	155.080000
301.765686	154.600000
301.858887	154.500000
301.952057	154.460000
302.045288	154.100000
302.138458	153.660000
302.231659	153.760000
302.324860	153.700000
302.418060	153.200000
302.511261	153.100000
302.604462	153.160000
302.697662	152.800000
302.790863	152.680000
302.884064	152.620000
302.977264	153.100000
303.070465	153.160000
303.163666	154.080000
303.256866	154.540000
303.350067	154.860000
303.443268	154.520000
303.536469	154.640000
303.629669	153.940000
303.722870	153.580000
303.816071	153.380000
303.909271	153.620000
304.002472	152.920000
304.095673	152.760000
304.188934	152.320000
304.282104	153.540000
304.375336	153.220000
304.468506	153.480000
304.561768	153.380000
304.654968	154.180000
304.748169	153.100000
304.841370	153.080000
304.934601	153.560000
305.027802	153.580000
305.121002	153.060000
305.214233	153.260000
305.307434	153.500000
305.400665	153.920000
305.493866	153.860000
305.587097	154.180000
305.680298	153.600000
305.773499	153.760000
305.866730	153.100000
305.959930	153.740000
306.053162	153.700000
306.146393	153.800000
306.239594	153.100000
306.332825	153.180000
306.426025	153.460000
306.519287	153.100000
306.612488	153.540000
306.705719	153.680000
306.798920	153.620000
306.892181	152.820000
306.985352	152.940000
307.078613	152.340000
307.171844	152.900000
307.265045	152.560000
307.358276	152.240000
307.451508	152.640000
307.544739	153.460000
307.637970	152.600000
307.731201	152.400000
307.824402	153.520000
307.917633	153.620000
308.010864	153.940000
308.104095	154.880000
308.197327	155.560000
308.290558	155.240000
308.383789	154.840000
308.477020	154.240000
308.570251	153.320000
308.663483	152.820000
308.756714	152.580000
308.849976	152.700000
308.943176	153.100000
309.036438	153.040000
309.129639	153.060000
309.222900	153.100000
309.316101	153.100000
309.409393	152.420000
309.502625	152.680000
309.595856	152.640000
309.689087	152.760000
309.782318	152.800000
309.875580	153.300000
309.968811	153.560000
310.062042	153.620000
310.155273	153.320000
310.248535	153.460000
310.341766	153.300000
310.434998	153.240000
310.528259	153.320000
310.621490	153.840000
310.714722	153.440000
310.807983	153.540000
310.901215	153.600000
310.994476	153.840000
311.087708	153.260000
311.181000	153.520000
311.274200	153.000000
311.367462	153.120000
311.460693	152.540000
311.553986	153.560000
311.647186	153.760000
311.740479	154.720000
311.833710	154.180000
311.926971	154.540000
312.020203	153.580000
312.113464	153.420000
312.206726	152.520000
312.299957	153.140000
312.393219	153.440000
312.486481	153.760000
312.579712	153.760000
312.672974	153.760000
312.766235	153.480000
312.859497	153.120000
312.952759	152.800000
313.045990	153.400000
313.139252	153.140000
313.232513	153.320000
313.325775	153.600000
313.419037	153.500000
313.512299	152.440000
313.605530	153.240000
313.698822	153.520000
313.792053	153.800000
313.885345	153.680000
313.978577	154.140000
314.071869	153.640000
314.165131	153.700000
314.258392	153.620000
314.351654	154.000000
314.444916	153.320000
314.538177	153.920000
314.631439	154.140000
314.724701	154.060000
314.817993	153.900000
314.911255	154.260000
315.004517	153.680000
315.097778	153.220000
315.191040	153.640000
315.284302	153.820000
315.377594	153.840000
315.470856	153.960000
315.564117	153.420000
315.657379	152.620000
315.750671	152.340000
315.843933	152.840000
315.937195	152.400000
316.030518	152.400000
316.123749	152.480000
316.217041	153.400000
316.310303	153.260000
316.403595	154.000000
316.496857	154.380000
316.590149	154.480000
316.683411	153.420000
316.776703	152.780000
316.869965	152.380000
316.963257	152.000000
317.056519	151.760000
317.149811	151.860000
317.243073	152.240000
317.336365	152.380000
317.429626	153.240000
317.522919	153.480000
317.616180	153.740000
317.709473	153.440000
317.802765	153.560000
317.896027	152.960000
317.989319	153.420000
318.082611	153.180000
318.175873	152.900000
318.269165	152.920000
318.362488	152.980000
318.455750	152.280000
318.549042	152.760000
318.642303	153.560000
318.735626	153.280000
318.828888	153.360000
318.922211	153.300000
319.015472	154.100000
319.108765	153.160000
319.202057	152.740000
319.295349	153.060000
319.388641	153.220000
319.481934	152.380000
319.575226	153.060000
319.668518	153.780000
319.761810	154.020000
319.855103	154.220000
319.948395	154.060000
320.041687	154.280000
320.134979	154.000000
320.228271	153.460000
320.321564	153.020000
320.414856	153.140000
320.508148	152.360000
320.601440	152.680000
320.694763	152.600000
320.788025	153.600000
320.881348	153.380000
320.974640	153.900000
321.067963	153.260000
321.161224	153.180000
321.254547	152.380000
321.347839	153.320000
321.441162	152.840000
321.534454	153.300000
321.627747	153.220000
321.721069	153.900000
321.814362	153.540000
321.907654	153.940000
322.000946	153.820000
322.094269	154.400000
322.187561	153.840000
322.280884	154.120000
322.374176	154.200000
322.467468	154.480000
322.560791	154.580000
322.654083	155.220000
322.747406	155.120000
322.840698	155.300000
322.934021	155.500000
323.027344	155.460000
323.120636	155.060000
323.213959	154.840000
323.307251	154.300000
323.400574	154.180000
323.493866	153.740000
323.587219	153.860000
323.680511	153.980000
323.773834	154.480000
323.867157	154.160000
323.960449	154.560000
324.053772	154.160000
324.147095	153.900000
324.240387	154.400000
324.333710	154.500000
324.427032	154.160000
324.520355	154.200000
324.613647	153.860000
324.706970	153.380000
324.800293	153.320000
324.893616	153.560000
324.986938	153.680000
325.080231	153.680000
325.173553	154.040000
325.266876	154.780000
325.360199	154.660000
325.453522	154.240000
325.546875	154.040000
325.640167	153.880000
325.733521	153.760000
325.826813	154.100000
325.920166	154.180000
326.013489	154.420000
326.106812	153.540000
326.200134	152.840000
326.293457	152.180000
326.386780	152.300000
326.480103	152.040000
326.573425	152.140000
326.666748	152.200000
326.760071	152.920000
326.853424	153.320000
326.946747	153.600000
327.040070	154.820000
327.133392	154.660000
327.226715	153.760000
327.320068	152.940000
327.413391	153.700000
327.506714	152.480000
327.600037	152.420000
327.693390	152.780000
327.786713	153.300000
327.880066	152.920000
327.973358	153.460000
328.066742	154.040000
328.160034	154.260000
328.253418	154.520000
328.346710	154.200000
328.440063	153.780000
328.533417	153.280000
328.626740	153.420000
328.720093	153.140000
328.813416	153.040000
328.906769	153.100000
329.000092	153.620000
329.093445	153.640000
329.186768	153.320000
329.280121	153.880000
329.373444	154.480000
329.466797	154.240000
329.560120	154.280000
329.653473	154.920000
329.746796	154.380000
329.840149	154.140000
329.933502	153.840000
330.026825	153.340000
330.120178	152.800000
330.213562	153.020000
330.306854	152.920000
330.400238	153.140000
330.493561	153.160000
330.586945	153.940000
330.680237	154.440000
330.773621	154.320000
330.866974	154.600000
330.960327	154.880000
331.053680	154.400000
331.147003	154.000000
331.240356	154.620000
331.333710	154.440000
331.427063	154.260000
331.520416	154.140000
331.613770	153.780000
331.707123	153.600000
331.800476	153.540000
331.893829	154.480000
331.987152	154.460000
332.080505	154.980000
332.173859	154.780000
332.267212	154.600000
332.360565	153.680000
332.453918	153.420000
332.547333	152.980000
332.640656	153.040000
332.734039	153.180000
332.827362	153.140000
332.920746	154.060000
333.014069	154.320000
333.107452	154.700000
333.200806	154.700000
333.294159	154.920000
333.387543	154.340000
333.480896	153.680000
333.574249	153.180000
333.667603	153.100000
333.760956	153.060000
333.854340	152.820000
333.947693	153.320000
334.041046	153.480000
334.134430	153.640000
334.227783	153.480000
334.321136	153.720000
334.414520	153.560000
334.507874	153.720000
334.601227	153.820000
334.694611	153.800000
334.787964	153.700000
334.881348	154.300000
334.974701	154.200000
335.068085	153.660000
335.161438	154.040000
335.254822	153.960000
335.348175	153.720000
335.441559	153.120000
335.534943	154.200000
335.628296	153.800000
335.721680	154.060000
335.815033	154.040000
335.908417	154.440000
336.001770	154.140000
336.095154	154.160000
336.188538	153.880000
336.281891	153.440000
336.375275	153.280000
336.468658	152.600000
336.562012	152.740000
336.655396	153.060000
336.748779	153.700000
336.842133	153.740000
336.935516	154.120000
337.028900	153.840000
337.122284	153.760000
337.215637	153.840000
337.309021	153.700000
337.402435	153.260000
337.495789	153.220000
337.589203	153.120000
337.682526	152.420000
337.775940	152.740000
337.869324	153.040000
337.962708	152.880000
338.056091	153.200000
338.149475	153.100000
338.242859	153.080000
338.336243	152.940000
338.429626	153.300000
338.523010	153.060000
338.616394	153.040000
338.709778	153.280000
338.803162	153.900000
338.896545	153.840000
338.989929	153.400000
339.083313	153.620000
339.176697	153.120000
339.270081	152.540000
339.363464	152.980000
339.456848	153.600000
339.550232	153.260000
339.643616	153.320000
339.737030	153.440000
339.830383	152.880000
339.923828	152.800000
340.017181	153.160000
340.110596	153.240000
340.203949	153.280000
340.297363	153.060000
340.390778	152.860000
340.484161	152.980000
340.577545	152.920000
340.670959	152.960000
340.764343	153.400000
340.857727	153.340000
340.951111	152.740000
341.044525	153.020000
341.137909	152.600000
341.231293	152.360000
341.324707	152.440000
341.418091	153.780000
341.511505	153.700000
341.604889	154.480000
341.698303	155.000000
341.791687	154.920000
341.885071	153.900000
341.978485	153.640000
342.071899	153.240000
342.165283	153.100000
342.258698	153.360000
342.352081	153.840000
342.445496	154.500000
342.538879	154.740000
342.632324	154.200000
342.725708	154.060000
342.819122	153.500000
342.912506	152.920000
343.005920	152.700000
343.099335	153.780000
343.192719	153.820000
343.286133	154.040000
343.379547	154.180000
343.472931	154.360000
343.566345	153.400000
343.659760	153.660000
343.753143	153.480000
343.846558	153.200000
343.939972	152.820000
344.033386	153.420000
344.126770	153.040000
344.220184	153.040000
344.313599	153.520000
344.407043	153.720000
344.500427	153.280000
344.593872	153.840000
344.687225	153.920000
344.780670	153.580000
344.874054	153.360000
344.967499	154.100000
345.060913	153.940000
345.154327	153.780000
345.247742	153.640000
345.341156	153.720000
345.434570	153.000000
345.527985	152.620000
345.621399	153.060000
345.714813	152.780000
345.808228	153.000000
345.901642	152.780000
345.995056	152.520000
346.088470	152.720000
346.181885	153.400000
346.275299	153.020000
346.368713	153.000000
346.462128	152.980000
346.555573	152.400000
346.648987	152.380000
346.742401	152.400000
346.835815	153.080000
346.929260	153.360000
347.022644	153.440000
347.116119	153.540000
347.209503	153.920000
347.302948	154.360000
347.396362	154.800000
347.489807	155.160000
347.583221	155.640000
347.676636	155.380000
347.770050	154.200000
347.863495	153.720000
347.956909	153.340000
348.050323	152.360000
348.143768	152.700000
348.237183	152.540000
348.330597	152.800000
348.424042	153.320000
348.517456	153.720000
348.610901	153.520000
348.704315	153.780000
348.797760	153.280000
348.891174	152.580000
348.984619	152.080000
349.078033	152.380000
349.171448	153.160000
349.264923	153.100000
349.358337	153.200000
349.451782	153.680000
349.545197	153.020000
349.638641	152.160000
349.732086	151.800000
349.825500	152.420000
349.918945	151.760000
350.012390	152.460000
350.105804	153.080000
350.199249	153.600000
350.292664	153.760000
350.386108	154.220000
350.479553	154.200000
350.572968	154.000000
350.666412	154.420000
350.759857	153.740000
350.853302	153.940000
350.946716	153.280000
351.040161	153.220000
351.133606	153.200000
351.227081	153.320000
351.320465	154.280000
351.413940	154.880000
351.507355	155.060000
351.600830	155.100000
351.694244	154.900000
351.787720	154.240000
351.881104	153.840000
351.974579	153.780000
352.067993	154.340000
352.161469	154.200000
352.254883	153.680000
352.348358	153.900000
352.441803	153.700000
352.535248	153.320000
352.628693	154.040000
352.722137	154.020000
352.815582	154.220000
352.909027	154.440000
353.002472	154.180000
353.095917	153.780000
353.189362	154.040000
353.282806	153.700000
353.376251	153.500000
353.469696	152.960000
353.563141	153.420000
353.656586	152.940000
353.750061	152.800000
353.843475	152.980000
353.936981	153.700000
354.030396	153.200000
354.123871	153.480000
354.217285	154.500000
354.310760	154.580000
354.404175	154.180000
354.497681	153.880000
354.591095	153.940000
354.684570	152.560000
354.777985	152.340000
354.871490	152.220000
354.964935	153.140000
355.058380	153.000000
355.151855	152.900000
355.245300	153.340000
355.338745	153.920000
355.432220	153.640000
355.525665	153.300000
355.619110	154.240000
355.712585	153.860000
355.806030	153.300000
355.899475	152.880000
355.992950	153.480000
356.086426	153.660000
356.179871	153.640000
356.273346	153.860000
356.366791	154.080000
356.460266	154.440000
356.553711	153.800000
356.647186	153.780000
356.740631	153.400000
356.834106	153.040000
356.927551	152.900000
357.021027	152.960000
357.114471	153.120000
357.207947	153.580000
357.301422	154.080000
357.394867	153.620000
357.488342	153.760000
357.581818	153.700000
357.675262	153.960000
357.768738	153.560000
357.862213	153.180000
357.955658	153.520000
358.049133	153.080000
358.142609	153.280000
358.236053	153.240000
358.329529	153.760000
358.423035	153.420000
358.516449	153.600000
358.609955	153.660000
358.703400	154.500000
358.796906	154.420000
358.890350	154.120000
358.983826	154.780000
359.077271	153.900000
359.170776	153.360000
359.264221	153.360000
359.357727	153.800000
359.451172	153.700000
359.544647	153.940000
359.638123	153.640000
359.731598	153.900000
359.825073	154.080000
359.918549	153.800000
360.012024	154.120000
360.105499	153.760000
360.198975	153.660000
360.292450	153.500000
360.385925	153.540000
360.479401	152.760000
360.572876	153.540000
360.666351	153.860000
360.759857	153.700000
360.853302	153.660000
360.946808	153.720000
361.040253	153.760000
361.133759	153.260000
361.227203	153.360000
361.320709	153.060000
361.414154	153.480000
361.507660	153.480000
361.601105	153.880000
361.694641	154.340000
361.788086	154.260000
361.881592	154.780000
361.975067	154.300000
362.068542	154.780000
362.162018	154.420000
362.255524	154.160000
362.348999	153.580000
362.442474	154.040000
362.535950	153.000000
362.629456	152.780000
362.722931	152.940000
362.816406	153.300000
362.909882	153.560000
363.003387	153.460000
363.096863	153.780000
363.190338	153.980000
363.283875	153.800000
363.377319	153.700000
363.470825	154.440000
363.564301	153.820000
363.657806	154.080000
363.751282	153.840000
363.844788	154.320000
363.938232	153.560000
364.031769	154.520000
364.125214	154.560000
364.218750	155.100000
364.312225	153.900000
364.405731	154.240000
364.499207	153.340000
364.592712	152.900000
364.686188	152.420000
364.779694	152.600000
364.873169	152.660000
364.966675	152.760000
365.060150	152.960000
365.153656	153.340000
365.247131	153.660000
365.340637	153.620000
365.434143	154.500000
365.527618	154.440000
365.621155	153.560000
365.714600	153.440000
365.808136	153.580000
365.901611	152.120000
365.995117	152.260000
366.088593	152.540000
366.182129	152.280000
366.275604	152.440000
366.369110	153.140000
366.462585	153.220000
366.556122	153.840000
366.649567	154.060000
366.743103	153.960000
366.836609	153.540000
366.930115	153.560000
367.023590	153.580000
367.117096	153.380000
367.210602	153.140000
367.304108	154.040000
367.397614	154.280000
367.491119	154.280000
367.584595	154.500000
367.678101	154.840000
367.771606	154.180000
367.865112	153.820000
367.958649	153.140000
368.052124	152.760000
368.145660	152.460000
368.239136	153.120000
368.332672	153.220000
368.426147	153.520000
368.519684	153.580000
368.613159	154.060000
368.706696	153.500000
368.800171	153.500000
368.893707	153.580000
368.987183	153.840000
369.080719	153.820000
369.174225	153.720000
369.267731	153.880000
369.361237	153.740000
369.454742	153.660000
369.548248	153.720000
369.641754	153.500000
369.735260	153.160000
369.828766	152.440000
369.922272	153.260000
370.015808	152.600000
370.109314	152.740000
370.202820	152.840000
370.296356	154.180000
370.389832	153.680000
370.483368	153.500000
370.576874	153.340000
370.670410	153.500000
370.763885	152.520000
370.857422	152.440000
370.950928	152.440000
371.044464	153.360000
371.137939	153.480000
371.231476	154.160000
371.324982	154.480000
371.418518	154.900000
371.512024	154.580000
371.605560	154.420000
371.699066	154.240000
371.792572	153.720000
371.886108	153.980000
371.979614	153.620000
372.073120	153.980000
372.166656	154.000000
372.260162	154.320000
372.353668	153.960000
372.447205	153.780000
372.540710	153.460000
372.634277	153.460000
372.727753	153.580000
372.821320	153.700000
372.914795	153.900000
373.008362	153.600000
373.101837	153.500000
373.195404	153.180000
373.288879	153.080000
373.382446	153.900000
373.475922	153.920000
373.569489	154.700000
373.662964	155.000000
373.756531	155.120000
373.850037	154.760000
373.943573	154.700000
374.037109	153.180000
374.130615	153.440000
374.224152	153.440000
374.317657	153.040000
374.411194	154.120000
374.504730	154.740000
374.598236	154.180000
374.691772	153.880000
374.785309	154.100000
374.878815	152.820000
374.972351	153.260000
375.065887	153.080000
375.159454	154.200000
375.252930	153.920000
375.346497	154.620000
375.440002	154.860000
375.533569	154.960000
375.627045	153.660000
375.720612	153.720000
375.814117	153.640000
375.907684	152.840000
376.001160	152.740000
376.094727	152.520000
376.188232	153.140000
376.281799	153.180000
376.375336	153.400000
376.468872	154.200000
376.562408	154.620000
376.655914	154.280000
376.749451	154.120000
376.842987	154.400000
376.936523	153.880000
377.030060	153.940000
377.123596	154.160000
377.217133	153.420000
377.310669	153.400000
377.404205	153.560000
377.497772	154.080000
377.591278	153.680000
377.684845	154.880000
377.778351	155.060000
377.871918	154.600000
377.965424	153.840000
378.058990	153.560000
378.152496	153.140000
378.246063	153.200000
378.339569	153.460000
378.433136	153.660000
378.526642	153.860000
378.620209	153.760000
378.713745	153.180000
378.807312	153.560000
378.900848	153.640000
378.994385	154.180000
379.087921	153.580000
379.181458	153.840000
379.274994	153.240000
379.368530	152.900000
379.462097	152.740000
379.555634	153.420000
379.649170	152.880000
379.742706	153.000000
379.836273	153.400000
379.929810	153.180000
380.023376	152.980000
380.116882	153.160000
380.210449	153.040000
380.303986	152.580000
380.397552	152.160000
380.491058	152.400000
380.584656	152.360000
380.678162	152.720000
380.771729	153.120000
380.865265	154.240000
380.958832	154.100000
381.052368	154.460000
381.145935	154.520000
381.239471	154.900000
381.333008	154.140000
381.426575	153.920000
381.520111	154.060000
381.613647	154.060000
381.707214	153.720000
381.800751	153.200000
381.894318	153.500000
381.987854	152.740000
382.081421	152.400000
382.174988	152.480000
382.268524	152.560000
382.362091	152.460000
382.455627	153.640000
382.549194	153.480000
382.642731	152.700000
382.736298	152.640000
382.829834	152.600000
382.923401	152.780000
383.016937	153.260000
383.110504	154.040000
383.204041	154.460000
383.297607	154.740000
383.391174	153.540000
383.484741	154.520000
383.578278	154.120000
383.671844	153.620000
383.765411	152.980000
383.858948	153.800000
383.952515	152.760000
384.046051	153.140000
384.139618	153.720000
384.233185	154.140000
384.326721	153.900000
384.420288	154.400000
384.513855	154.240000
384.607422	154.280000
384.700989	154.360000
384.794525	153.900000
384.888123	153.760000
384.981659	153.860000
385.075226	153.580000
385.168762	153.340000
385.262360	153.380000
385.355896	152.460000
385.449463	152.380000
385.542999	152.440000
385.636597	153.260000
385.730164	153.660000
385.823730	153.660000
385.917267	153.380000
386.010834	153.540000
386.104401	153.000000
386.197968	153.120000
386.291534	153.740000
386.385101	154.000000
386.478668	154.600000
386.572235	154.560000
386.665802	153.900000
386.759338	153.420000
386.852905	153.380000
386.946472	152.440000
387.040070	152.360000
387.133606	152.620000
387.227203	152.600000
387.320740	152.880000
387.414337	152.840000
387.507874	152.700000
387.601471	152.720000
387.695007	152.520000
387.788605	152.100000
387.882141	152.520000
387.975739	152.640000
388.069275	152.580000
388.162872	153.220000
388.256439	153.080000
388.350037	152.540000
388.443604	152.500000
388.537170	152.680000
388.630737	152.980000
388.724304	153.360000
388.817871	153.640000
388.911438	153.820000
389.005005	153.920000
389.098602	154.220000
389.192169	153.780000
389.285736	154.280000
389.379333	154.240000
389.472870	153.700000
389.566467	152.840000
389.660034	153.160000
389.753632	152.280000
389.847168	152.660000
389.940765	153.000000
390.034332	153.660000
390.127930	153.360000
390.221466	153.900000
390.315063	153.300000
390.408630	152.660000
390.502228	151.460000
390.595795	151.720000
390.689362	151.620000
390.782959	152.340000
390.876526	153.040000
390.970093	153.500000
391.063690	153.960000
391.157257	153.800000
391.250824	153.820000
391.344421	153.620000
391.437988	154.120000
391.531555	154.200000
391.625153	154.440000
391.718750	154.360000
391.812317	154.440000
391.905914	154.060000
391.999481	153.700000
392.093079	153.800000
392.186615	154.160000
392.280243	154.460000
392.373779	154.580000
392.467407	155.260000
392.560944	155.080000
392.654572	154.220000
392.748108	154.100000
392.841736	154.220000
392.935303	153.720000
393.028900	153.620000
393.122467	153.600000
393.216064	153.400000
393.309631	152.840000
393.403229	152.080000
393.496796	152.000000
393.590393	152.000000
393.683990	152.240000
393.777557	152.740000
393.871155	153.580000
393.964722	154.120000
394.058350	154.320000
394.151917	154.140000
394.245514	153.720000
394.339081	153.940000
394.432678	153.960000
394.526245	153.620000
394.619873	153.300000
394.713409	153.700000
394.807037	153.240000
394.900604	153.320000
394.994202	153.520000
395.087769	153.920000
395.181396	153.440000
395.274994	154.300000
395.368561	153.520000
395.462158	153.700000
395.555756	153.240000
395.649353	153.680000
395.742920	152.980000
395.836517	153.880000
395.930115	153.140000
396.023712	153.480000
396.117279	153.920000
396.210876	153.600000
396.304474	153.420000
396.398071	154.120000
396.491669	154.600000
396.585266	154.100000
396.678833	153.900000
396.772461	154.060000
396.866028	153.920000
396.959656	153.900000
397.053223	153.920000
397.146851	154.000000
397.240417	153.740000
397.334015	154.320000
397.427582	153.700000
397.521210	153.840000
397.614807	154.180000
397.708405	154.280000
397.802002	153.760000
397.895599	154.200000
397.989197	154.020000
398.082794	153.740000
398.176392	153.760000
398.269989	153.960000
398.363586	154.240000
398.457184	155.120000
398.550781	155.780000
398.644379	155.980000
398.737976	156.240000
398.831573	156.760000
398.925201	156.860000
399.018768	158.720000
399.112396	161.940000
399.205963	167.460000
399.299591	175.640000
399.393158	188.040000
399.486786	206.760000
399.580353	237.540000
399.673981	296.780000
399.767578	403.860000
399.861206	576.000000
399.954773	807.140000
400.048401	1056.060000
400.141998	1261.120000
400.235596	1367.080000
400.329193	1345.800000
400.422791	1199.740000
400.516418	979.400000
400.610016	744.640000
400.703613	542.580000
400.797211	389.120000
400.890808	289.900000
400.984436	231.380000
401.078033	198.960000
401.171631	181.340000
401.265259	172.340000
401.358826	167.540000
401.452484	164.660000
401.546051	162.720000
401.639679	160.820000
401.733246	159.740000
401.826904	157.980000
401.920471	156.460000
402.014099	155.820000
402.107697	155.500000
402.201324	155.060000
402.294891	155.220000
402.388550	155.200000
402.482147	154.820000
402.575745	154.620000
402.669373	154.200000
402.762970	154.000000
402.856567	153.840000
402.950195	153.960000
403.043793	153.780000
403.137390	154.860000
403.231018	153.940000
403.324615	154.560000
403.418243	154.100000
403.511841	154.940000
403.605469	154.000000
403.699066	155.060000
403.792694	154.840000
403.886292	155.080000
403.979919	154.520000
404.073517	154.360000
404.167145	154.220000
404.260712	154.260000
404.354370	154.140000
404.447937	154.520000
404.541595	155.080000
404.635162	155.360000
404.728821	155.740000
404.822418	155.520000
404.916046	154.920000
405.009644	154.740000
405.103271	154.540000
405.196899	153.760000
405.290497	153.740000
405.384125	154.140000
405.477722	153.640000
405.571350	153.360000
405.664948	153.740000
405.758575	153.640000
405.852203	153.280000
405.945801	153.720000
406.039429	153.620000
406.133057	153.220000
406.226654	153.420000
406.320312	153.260000
406.413879	153.420000
406.507538	153.860000
406.601135	153.500000
406.694763	154.280000
406.788361	154.160000
406.882019	153.660000
406.975586	153.860000
407.069244	154.720000
407.162872	154.300000
407.256470	154.240000
407.350098	154.000000
407.443726	153.160000
407.537323	152.640000
407.630951	152.700000
407.724579	152.640000
407.818207	153.480000
407.911804	153.600000
408.005432	153.360000
408.099060	153.560000
408.192688	154.080000
408.286285	153.700000
408.379913	153.400000
408.473572	153.780000
408.567169	152.840000
408.660828	152.640000
408.754395	152.200000
408.848053	152.420000
408.941650	152.520000
409.035309	152.220000
409.128906	152.140000
409.222565	152.600000
409.316132	152.720000
409.409790	152.300000
409.503387	152.720000
409.597046	152.960000
409.690674	152.820000
409.784302	152.760000
409.877930	153.020000
409.971558	153.300000
410.065186	152.960000
410.158783	153.020000
410.252411	153.120000
410.346039	153.420000
410.439667	153.100000
410.533295	153.240000
410.626923	153.540000
410.720551	153.060000
410.814209	153.480000
410.907806	153.960000
411.001465	153.540000
411.095062	153.700000
411.188721	154.100000
411.282318	153.600000
411.375977	152.880000
411.469574	153.260000
411.563232	152.840000
411.656830	152.680000
411.750488	152.220000
411.844086	152.460000
411.937744	152.620000
412.031372	152.700000
412.125000	152.740000
412.218628	153.000000
412.312256	153.720000
412.405884	154.060000
412.499512	153.940000
412.593170	154.380000
412.686798	154.460000
412.780426	153.600000
412.874054	153.580000
412.967682	153.560000
413.061310	153.940000
413.154968	154.120000
413.248566	154.720000
413.342224	154.180000
413.435852	154.440000
413.529510	153.920000
413.623108	153.460000
413.716766	153.080000
413.810364	153.920000
413.904022	153.240000
413.997650	152.840000
414.091309	153.740000
414.184906	153.660000
414.278564	152.860000
414.372192	153.700000
414.465851	154.260000
414.559479	153.720000
414.653107	154.760000
414.746735	154.680000
414.840393	154.300000
414.934021	154.400000
415.027649	154.080000
415.121277	153.820000
415.214935	154.300000
415.308563	154.400000
415.402191	153.540000
415.495850	153.460000
415.589478	152.700000
415.683136	152.360000
415.776733	152.500000
415.870422	153.100000
415.964020	152.760000
416.057678	152.940000
416.151306	153.140000
416.244965	152.900000
416.338562	152.740000
416.432251	153.700000
416.525848	154.560000
416.619507	154.840000
416.713165	155.300000
416.806793	155.400000
416.900421	155.500000
416.994080	154.740000
417.087708	154.480000
417.181366	153.920000
417.274994	154.000000
417.368622	153.780000
417.462280	154.100000
417.555908	153.880000
417.649567	153.980000
417.743195	154.160000
417.836853	154.200000
417.930481	154.300000
418.024170	154.600000
418.117767	155.040000
418.211426	155.260000
418.305054	155.360000
418.398712	154.940000
418.492340	154.640000
418.585999	154.920000
418.679626	154.680000
418.773285	154.620000
418.866913	155.220000
418.960571	155.620000
419.054230	155.520000
419.147858	155.720000
419.241516	155.580000
419.335144	154.800000
419.428802	154.400000
419.522461	153.700000
419.616089	153.040000
419.709747	153.440000
419.803375	153.520000
419.897034	153.480000
419.990662	153.760000
420.084320	154.220000
420.177979	154.160000
420.271606	154.660000
420.365295	155.560000
420.458893	155.900000
420.552582	156.060000
420.646210	155.800000
420.739868	155.500000
420.833496	154.980000
420.927155	154.260000
421.020782	153.960000
421.114471	153.640000
421.208069	153.640000
421.301758	153.680000
421.395386	154.100000
421.489044	153.940000
421.582703	153.940000
421.676361	154.300000
421.769989	153.480000
421.863647	153.700000
421.957306	153.860000
422.050934	154.300000
422.144592	154.140000
422.238251	154.280000
422.331909	153.700000
422.425537	153.300000
422.519196	153.120000
422.612854	152.660000
422.706543	152.800000
422.800140	153.280000
422.893829	153.180000
422.987457	152.660000
423.081146	152.980000
423.174744	153.400000
423.268433	152.940000
423.362061	153.360000
423.455750	153.440000
423.549347	153.560000
423.643036	152.920000
423.736664	153.460000
423.830353	153.560000
423.924011	154.320000
424.017639	153.480000
424.111298	154.100000
424.204956	153.960000
424.298615	153.940000
424.392273	153.560000
424.485931	154.120000
424.579559	154.020000
424.673218	153.860000
424.766876	153.740000
424.860535	153.160000
424.954193	153.180000
425.047882	153.680000
425.141510	153.660000
425.235199	153.740000
425.328796	153.900000
425.422485	153.840000
425.516113	153.260000
425.609802	153.500000
425.703430	153.720000
425.797119	153.760000
425.890747	153.940000
425.984436	154.120000
426.078064	154.120000
426.171753	153.900000
426.265411	153.920000
426.359070	154.200000
426.452728	154.200000
426.546356	154.060000
426.640015	153.940000
426.733673	154.120000
426.827332	153.360000
426.920990	153.940000
427.014648	153.400000
427.108307	153.660000
427.201965	154.220000
427.295624	155.000000
427.389282	154.180000
427.482941	154.700000
427.576630	154.840000
427.670258	154.200000
427.763947	154.080000
427.857574	154.300000
427.951263	154.540000
428.044922	154.100000
428.138611	154.340000
428.232239	154.800000
428.325928	155.340000
428.419556	155.740000
428.513245	155.520000
428.606903	155.360000
428.700562	154.580000
428.794220	153.580000
428.887878	153.140000
428.981537	153.760000
429.075195	153.880000
429.168854	154.220000
429.262512	154.680000
429.356201	154.560000
429.449860	154.480000
429.543518	154.600000
429.637177	154.920000
429.730835	154.920000
429.824493	154.760000
429.918182	154.800000
430.011810	154.080000
430.105530	153.060000
430.199158	153.060000
430.292847	153.280000
430.386475	153.020000
430.480164	153.320000
430.573792	153.360000
430.667511	153.060000
430.761139	152.940000
430.854828	153.680000
430.948456	154.100000
431.042145	155.040000
431.135834	155.280000
431.229492	155.440000
431.323151	155.020000
431.416809	154.760000
431.510468	154.440000
431.604156	154.260000
431.697815	154.060000
431.791473	153.700000
431.885132	153.320000
431.978821	153.820000
432.072479	154.360000
432.166138	154.980000
432.259827	155.140000
432.353485	155.780000
432.447174	155.580000
432.540802	155.280000
432.634491	155.100000
432.728149	155.440000
432.821838	155.920000
432.915466	155.480000
433.009186	155.520000
433.102814	154.500000
433.196503	154.240000
433.290131	153.640000
433.383850	154.160000
433.477509	154.280000
433.571167	155.660000
433.664856	156.320000
433.758514	157.000000
433.852173	156.820000
433.945862	156.880000
434.039520	156.440000
434.133179	155.300000
434.226868	154.640000
434.320526	154.020000
434.414185	154.240000
434.507874	153.880000
434.601562	154.620000
434.695221	154.300000
434.788910	154.500000
434.882538	154.300000
434.976257	154.020000
435.069885	153.700000
435.163574	154.380000
435.257233	154.080000
435.350922	154.100000
435.444580	154.220000
435.538269	154.040000
435.631897	154.100000
435.725616	154.620000
435.819275	154.980000
435.912964	155.380000
436.006622	155.960000
436.100311	155.600000
436.193970	155.140000
436.287628	154.720000
436.381317	154.300000
436.474976	153.580000
436.568665	153.340000
436.662323	153.460000
436.756012	153.480000
436.849670	153.680000
436.943390	153.800000
437.037018	153.560000
437.130737	153.760000
437.224365	153.500000
437.318085	153.520000
437.411713	153.680000
437.505432	154.480000
437.599060	154.760000
437.692780	155.360000
437.786407	155.380000
437.880127	155.380000
437.973755	154.940000
438.067474	154.320000
438.161133	154.300000
438.254822	154.780000
438.348480	154.800000
438.442169	155.280000
438.535828	155.900000
438.629517	155.000000
438.723175	154.180000
438.816864	154.460000
438.910553	153.780000
439.004211	153.340000
439.097900	153.580000
439.191559	153.700000
439.285248	152.780000
439.378906	153.340000
439.472626	153.380000
439.566284	153.360000
439.659973	154.000000
439.753632	154.160000
439.847321	154.520000
439.940979	154.360000
440.034698	154.500000
440.128326	153.660000
440.222046	153.940000
440.315674	152.660000
440.409393	153.080000
440.503082	152.960000
440.596741	153.440000
440.690430	153.540000
440.784088	153.800000
440.877777	153.200000
440.971466	153.240000
441.065125	153.000000
441.158813	152.780000
441.252502	152.900000
441.346161	153.280000
441.439850	153.380000
441.533539	153.420000
441.627197	153.760000
441.720886	153.500000
441.814606	153.800000
441.908234	153.980000
442.001953	153.540000
442.095612	153.300000
442.189301	153.880000
442.282959	153.600000
442.376678	153.120000
442.470306	154.240000
442.564026	153.980000
442.657684	153.720000
442.751404	154.040000
442.845032	155.000000
442.938751	154.100000
443.032440	154.400000
443.126099	154.060000
443.219788	154.340000
443.313477	153.580000
443.407166	154.000000
443.500824	153.980000
443.594513	154.460000
443.688202	153.620000
443.781891	153.100000
443.875549	152.500000
443.969238	152.720000
444.062927	152.480000
444.156647	152.880000
444.250275	153.700000
444.343994	154.260000
444.437653	154.320000
444.531372	154.400000
444.625031	154.040000
444.718719	153.400000
444.812378	152.920000
444.906097	152.640000
444.999756	152.160000
445.093445	152.360000
445.187103	153.040000
445.280823	153.940000
445.374512	153.260000
445.468201	153.700000
445.561859	153.300000
445.655548	153.080000
445.749237	152.320000
445.842926	153.160000
445.936615	153.380000
446.030304	153.420000
446.123962	153.620000
446.217651	153.620000
446.311340	153.380000
446.405029	153.060000
446.498749	153.060000
446.592407	152.500000
446.686096	152.560000
446.779755	152.680000
446.873474	153.100000
446.967133	153.680000
447.060852	153.500000
447.154510	153.520000
447.248230	153.440000
447.341858	153.040000
447.435577	152.300000
447.529236	152.240000
447.622955	151.940000
447.716644	151.960000
447.810333	152.180000
447.904022	152.800000
447.997711	152.920000
448.091400	153.440000
448.185059	153.420000
448.278748	153.300000
448.372437	153.320000
448.466125	153.700000
448.559814	153.460000
448.653503	153.940000
448.747192	154.300000
448.840912	154.240000
448.934570	154.040000
449.028290	154.460000
449.121948	154.100000
449.215637	153.460000
449.309296	153.200000
449.403015	153.640000
449.496674	153.520000
449.590393	153.340000
449.684052	153.460000
449.777771	154.340000
449.871429	153.440000
449.965149	153.180000
450.058838	153.620000
450.152527	154.160000
450.246216	153.520000
450.339905	154.100000
450.433594	154.020000
450.527283	154.360000
450.620972	153.780000
450.714661	153.980000
450.808350	154.100000
450.902039	154.380000
450.995728	154.120000
451.089417	154.140000
451.183105	154.180000
451.276794	154.620000
451.370514	154.040000
451.464172	153.000000
451.557892	152.920000
451.651550	152.720000
451.745270	151.960000
451.838928	151.740000
451.932648	152.240000
452.026306	152.740000
452.120026	152.300000
452.213684	152.820000
452.307404	153.420000
452.401062	153.480000
452.494781	153.740000
452.588470	153.960000
452.682159	153.260000
452.775848	153.280000
452.869537	152.740000
452.963226	152.020000
453.056915	151.980000
453.150604	152.240000
453.244293	152.180000
453.337982	153.260000
453.431671	153.780000
453.525360	154.140000
453.619049	154.160000
453.712769	154.280000
453.806427	153.400000
453.900146	152.880000
453.993805	152.680000
454.087555	152.940000
454.181213	152.920000
454.274933	153.260000
454.368591	153.420000
454.462311	153.320000
454.555969	152.920000
454.649689	153.740000
454.743347	153.500000
454.837067	154.060000
454.930756	154.700000
455.024445	154.820000
455.118134	154.080000
455.211853	154.280000
455.305542	153.660000
455.399231	153.460000
455.492920	153.340000
455.586609	153.400000
455.680298	153.860000
455.773987	153.560000
455.867676	153.140000
455.961365	153.680000
456.055084	153.140000
456.148773	152.500000
456.242493	153.060000
456.336151	153.160000
456.429871	153.200000
456.523529	154.080000
456.617249	154.080000
456.710907	154.740000
456.804626	154.560000
456.898315	153.980000
456.992035	153.540000
457.085693	153.160000
457.179413	152.060000
457.273102	153.000000
457.366791	153.180000
457.460480	153.820000
457.554199	154.980000
457.647888	155.200000
457.741577	154.600000
457.835266	154.820000
457.928955	154.780000
458.022644	154.880000
458.116364	155.400000
458.210052	155.160000
458.303741	155.280000
458.397461	154.320000
458.491119	153.520000
458.584839	153.020000
458.678528	152.640000
458.772247	152.060000
458.865906	152.220000
458.959625	153.200000
459.053284	153.420000
459.147003	153.460000
459.240692	154.440000
459.334412	154.620000
459.428070	153.840000
459.521790	153.440000
459.615479	153.460000
459.709198	153.420000
459.802887	153.260000
459.896576	153.220000
459.990265	153.480000
460.083954	154.080000
460.177673	153.320000
460.271362	153.460000
460.365051	153.300000
460.458740	153.260000
460.552429	152.580000
460.646149	152.780000
460.739838	152.460000
460.833527	152.840000
460.927246	152.580000
461.020905	152.840000
461.114655	153.040000
461.208313	153.380000
461.302032	152.840000
461.395691	153.200000
461.489441	153.500000
461.583099	153.080000
461.676819	152.520000
461.770477	152.980000
461.864197	152.720000
461.957916	152.660000
462.051605	152.300000
462.145294	153.620000
462.238983	153.360000
462.332703	153.940000
462.426392	154.280000
462.520081	154.700000
462.613770	153.820000
462.707489	154.060000
462.801178	153.720000
462.894867	153.300000
462.988556	153.360000
463.082275	153.600000
463.175964	153.200000
463.269684	153.320000
463.363342	153.260000
463.457092	152.400000
463.550751	152.880000
463.644470	153.060000
463.738129	153.000000
463.831879	153.400000
463.925537	154.620000
464.019257	154.340000
464.112946	154.220000
464.206665	153.780000
464.300323	153.440000
464.394043	153.100000
464.487762	152.640000
464.581451	153.440000
464.675140	153.620000
464.768829	154.140000
464.862549	154.520000
464.956238	154.880000
465.049927	154.500000
465.143646	154.680000
465.237335	154.160000
465.331024	154.100000
465.424713	154.220000
465.518433	154.160000
465.612152	153.860000
465.705811	154.020000
465.799561	153.880000
465.893219	153.580000
465.986938	153.220000
466.080597	153.260000
466.174347	153.500000
466.268005	153.480000
466.361725	153.540000
466.455414	153.680000
466.549133	153.900000
466.642792	153.760000
466.736542	153.300000
466.830231	153.180000
466.923920	153.420000
467.017609	153.020000
467.111328	152.580000
467.205017	152.800000
467.298706	152.680000
467.392426	152.680000
467.486115	153.240000
467.579803	152.860000
467.673523	153.340000
467.767212	153.920000
467.860901	153.860000
467.954651	154.000000
468.048309	154.700000
468.142029	154.220000
468.235718	153.940000
468.329437	153.460000
468.423096	153.100000
468.516846	152.800000
468.610504	152.720000
468.704224	152.320000
468.797913	152.640000
468.891632	153.060000
468.985291	153.300000
469.079010	153.600000
469.172729	153.660000
469.266418	154.080000
469.360107	153.760000
469.453827	153.420000
469.547516	153.480000
469.641205	153.800000
469.734924	154.020000
469.828613	154.360000
469.922302	154.700000
470.016022	154.320000
470.109711	154.260000
470.203430	153.480000
470.297150	152.660000
470.390808	152.680000
470.484558	152.880000
470.578217	153.180000
470.671936	153.640000
470.765625	154.780000
470.859344	154.580000
470.953003	154.920000
471.046753	154.500000
471.140411	153.900000
471.234131	153.660000
471.327820	154.380000
471.421539	154.080000
471.515228	153.380000
471.608948	154.000000
471.702637	153.440000
471.796326	152.600000
471.890045	152.820000
471.983734	153.500000
472.077423	152.800000
472.171143	153.160000
472.264832	153.120000
472.358521	152.620000
472.452240	152.260000
472.545929	153.200000
472.639648	153.180000
472.733337	153.480000
472.827057	153.640000
472.920746	153.900000
473.014465	154.160000
473.108124	154.180000
473.201874	154.100000
473.295532	154.160000
473.389252	154.440000
473.482941	154.100000
473.576660	153.740000
473.670319	153.500000
473.764069	153.600000
473.857727	153.600000
473.951477	153.680000
474.045166	154.420000
474.138855	154.640000
474.232574	154.540000
474.326263	154.580000
474.419952	154.360000
474.513672	153.940000
474.607361	153.720000
474.701050	153.940000
474.794769	154.300000
474.888458	154.580000
474.982178	154.620000
475.075867	155.200000
475.169586	154.840000
475.263275	154.420000
475.356995	154.200000
475.450653	153.940000
475.544403	153.320000
475.638062	154.240000
475.731812	153.760000
475.825470	153.480000
475.919189	153.580000
476.012878	153.800000
476.106598	153.080000
476.200256	153.680000
476.294006	153.980000
476.387695	154.300000
476.481384	154.060000
476.575104	154.140000
476.668793	154.080000
476.762512	153.600000
476.856201	153.840000
476.949890	153.900000
477.043610	153.380000
477.137299	153.120000
477.230988	153.540000
477.324707	153.040000
477.418396	153.640000
477.512146	153.940000
477.605804	154.040000
477.699524	154.040000
477.793213	153.860000
477.886932	153.480000
477.980591	153.160000
478.074341	153.020000
478.167999	152.260000
478.261749	152.340000
478.355408	152.280000
478.449127	152.780000
478.542816	153.520000
478.636536	154.780000
478.730225	155.180000
478.823944	155.620000
478.917633	155.780000
479.011322	155.440000
479.105042	154.880000
479.198730	155.060000
479.292450	154.860000
479.386139	154.740000
479.479828	154.880000
479.573547	155.160000
479.667267	154.700000
479.760925	154.420000
479.854675	154.460000
479.948334	154.080000
480.042084	153.500000
480.135742	153.760000
480.229462	153.380000
480.323151	153.360000
480.416870	153.100000
480.510529	153.360000
480.604279	152.820000
480.697937	153.600000
480.791656	152.960000
480.885345	152.880000
480.979065	152.660000
481.072754	153.120000
481.166473	153.260000
481.260132	153.580000
481.353882	153.460000
481.447540	153.820000
481.541260	154.020000
481.635010	153.200000
481.728668	153.240000
481.822388	153.260000
481.916077	152.860000
482.009796	152.580000
482.103485	153.280000
482.197205	153.380000
482.290863	153.860000
482.384613	154.100000
482.478271	153.620000
482.571991	153.180000
482.665680	152.840000
482.759399	153.240000
482.853058	153.560000
482.946808	153.700000
483.040466	153.580000
483.134216	153.760000
483.227875	153.240000
483.321594	153.380000
483.415283	153.500000
483.509003	153.460000
483.602661	153.360000
483.696411	153.680000
483.790070	152.980000
483.883789	152.760000
483.977478	153.300000
484.071198	153.320000
484.164917	152.700000
484.258606	152.700000
484.352325	153.020000
484.445984	152.920000
484.539734	153.120000
484.633392	152.940000
484.727142	153.300000
484.820801	153.340000
484.914520	153.220000
485.008209	153.560000
485.101929	154.240000
485.195587	154.080000
485.289337	153.940000
485.382996	154.060000
485.476715	153.880000
485.570404	154.280000
485.664124	154.260000
485.757782	154.600000
485.851532	154.200000
485.945190	153.960000
486.038910	153.540000
486.132599	153.760000
486.226318	153.000000
486.319977	153.020000
486.413727	153.520000
486.507446	153.180000
486.601105	152.620000
486.694855	152.860000
486.788513	152.960000
486.882233	152.460000
486.975922	152.660000
487.069641	152.640000
487.163300	152.540000
487.257050	153.800000
487.350708	153.680000
487.444427	153.420000
487.538116	153.580000
487.631836	153.580000
487.725494	152.640000
487.819214	152.900000
487.912903	153.080000
488.006622	153.580000
488.100281	153.680000
488.194031	153.520000
488.287689	154.100000
488.381409	154.780000
488.475098	154.400000
488.568817	154.960000
488.662476	154.640000
488.756226	153.780000
488.849945	152.480000
488.943604	152.640000
489.037354	152.380000
489.131012	152.600000
489.224731	152.500000
489.318390	152.580000
489.412140	152.240000
489.505798	151.840000
489.599518	151.520000
489.693207	151.800000
489.786926	152.000000
489.880585	151.740000
489.974335	152.140000
490.067993	153.200000
490.161713	153.420000
490.255371	154.320000
490.349121	154.980000
490.442780	154.880000
490.536499	153.820000
490.630188	153.780000
490.723907	153.040000
490.817566	153.160000
490.911285	152.880000
491.004974	153.000000
491.098694	152.540000
491.192413	153.040000
491.286102	152.740000
491.379822	153.440000
491.473480	153.560000
491.567200	153.760000
491.660889	153.020000
491.754608	152.860000
491.848267	152.460000
491.941986	152.360000
492.035675	152.560000
492.129395	153.320000
492.223053	153.080000
492.316772	153.100000
492.410461	153.320000
492.504181	153.000000
492.597839	152.500000
492.691559	152.820000
492.785248	153.120000
492.878967	153.200000
492.972626	153.200000
493.066345	153.060000
493.160034	152.760000
493.253754	152.280000
493.347412	151.560000
493.441132	151.880000
493.534882	152.580000
493.628540	153.120000
493.722260	153.580000
493.815918	154.200000
493.909668	154.660000
494.003326	154.640000
494.097046	154.480000
494.190704	153.980000
494.284454	154.160000
494.378113	153.960000
494.471832	153.800000
494.565491	153.460000
494.659210	153.600000
494.752899	153.480000
494.846619	153.080000
494.940277	153.180000
495.033997	153.580000
495.127686	153.440000
495.221405	153.280000
495.315063	153.200000
495.408783	153.100000
495.502441	152.960000
495.596191	153.100000
495.689850	152.720000
495.783569	153.200000
495.877228	153.400000
495.970947	153.120000
496.064697	153.080000
496.158356	154.360000
496.252075	154.100000
496.345734	153.560000
496.439453	154.840000
496.533142	154.840000
496.626862	154.760000
496.720520	155.120000
496.814240	155.760000
496.907898	155.020000
497.001617	155.380000
497.095306	154.420000
497.189026	153.900000
497.282684	153.540000
497.376404	153.780000
497.470062	153.500000
497.563782	153.900000
497.657471	153.940000
497.751190	153.920000
497.844849	153.560000
497.938568	153.740000
498.032227	153.740000
498.125946	153.840000
498.219635	153.760000
498.313354	153.920000
498.407074	153.520000
498.500732	153.540000
498.594452	153.760000
498.688110	153.220000
498.781830	152.700000
498.875519	152.940000
498.969238	152.720000
499.062897	152.300000
499.156616	153.180000
499.250275	153.420000
499.343994	152.760000
499.437653	153.000000
499.531372	153.460000
499.625061	153.860000
499.718781	153.980000
499.812439	154.700000
499.906158	154.260000
499.999817	153.900000
500.093536	153.080000
500.187195	153.080000
500.280914	153.240000
500.374573	153.660000
500.468323	153.280000
500.561981	153.700000
500.655701	153.380000
500.749420	153.100000
500.843079	153.080000
500.936798	153.720000
501.030457	153.740000
501.124176	154.420000
501.217834	154.200000
501.311554	154.420000
501.405212	153.820000
501.498962	153.260000
501.592621	152.880000
501.686340	153.380000
501.779999	152.940000
501.873718	153.520000
501.967377	153.740000
502.061096	154.060000
502.154755	153.420000
502.248474	153.700000
502.342133	153.800000
502.435852	153.740000
502.529510	154.180000
502.623230	155.220000
502.716888	154.720000
502.810608	154.160000
502.904266	154.480000
502.997986	153.600000
503.091705	152.860000
503.185364	153.020000
503.279083	153.240000
503.372772	153.080000
503.466492	153.020000
503.560150	153.000000
503.653870	153.300000
503.747528	153.580000
503.841248	153.640000
503.934906	153.780000
504.028625	153.680000
504.122284	153.980000
504.216003	154.280000
504.309662	153.840000
504.403381	154.120000
504.497040	154.260000
504.590759	153.740000
504.684418	153.600000
504.778137	154.340000
504.871796	154.640000
504.965515	154.520000
505.059174	154.760000
505.152893	154.240000
505.246521	153.620000
505.340240	153.220000
505.433899	153.280000
505.527618	153.320000
505.621338	153.900000
505.714996	153.800000
505.808716	153.240000
505.902374	153.880000
505.996094	154.000000
506.089752	153.500000
506.183472	153.960000
506.277130	154.720000
506.370850	154.380000
506.464508	154.020000
506.558228	154.320000
506.651886	153.920000
506.745605	153.760000
506.839264	153.720000
506.932983	153.760000
507.026611	153.600000
507.120331	154.260000
507.213989	153.500000
507.307709	153.440000
507.401367	153.600000
507.495087	154.360000
507.588745	153.660000
507.682465	154.840000
507.776123	154.660000
507.869843	154.540000
507.963531	153.820000
508.057190	154.380000
508.150909	153.560000
508.244568	153.780000
508.338287	153.540000
508.431946	153.440000
508.525665	152.960000
508.619324	152.920000
508.713013	152.960000
508.806671	153.480000
508.900391	154.260000
508.994049	154.740000
509.087769	154.560000
509.181427	154.560000
509.275146	154.080000
509.368774	153.240000
509.462494	153.020000
509.556152	153.300000
509.649872	153.540000
509.743530	153.600000
509.837250	154.100000
509.930878	154.120000
510.024597	153.720000
510.118256	153.400000
510.211975	153.620000
510.305695	153.180000
510.399353	153.420000
510.493042	154.480000
510.586700	154.660000
510.680420	155.140000
510.774078	155.020000
510.867798	154.880000
510.961426	153.980000
511.055145	153.820000
511.148804	153.280000
511.242523	153.880000
511.336151	154.000000
511.429871	154.440000
511.523529	154.060000
511.617249	153.740000
511.710876	153.260000
511.804596	152.820000
511.898254	152.660000
511.991974	153.020000
512.085632	152.980000
512.179321	152.960000
512.272949	153.180000
512.366699	153.380000
512.460327	153.220000
512.554077	154.420000
512.647766	154.700000
512.741394	154.520000
512.835144	155.060000
512.928772	155.200000
513.022461	154.140000
513.116150	153.780000
513.209839	154.400000
513.303467	153.400000
513.397217	152.780000
513.490845	153.280000
513.584595	153.280000
513.678223	152.560000
513.771912	152.280000
513.865601	152.740000
513.959290	151.920000
514.052917	151.980000
514.146667	152.720000
514.240295	153.340000
514.333984	153.760000
514.427673	153.980000
514.521362	154.440000
514.614990	153.800000
514.708740	153.920000
514.802368	153.860000
514.896057	154.000000
514.989746	154.600000
515.083435	154.560000
515.177124	154.860000
515.270752	154.820000
515.364502	154.840000
515.458130	154.160000
515.551819	154.120000
515.645508	153.560000
515.739197	153.540000
515.832825	153.620000
515.926575	153.120000
516.020203	153.260000
516.113892	154.000000
516.207520	153.900000
516.301270	153.900000
516.394897	154.260000
516.488586	154.660000
516.582275	154.380000
516.675964	153.740000
516.769592	153.580000
516.863281	154.120000
516.956970	154.280000
517.050659	153.800000
517.144287	154.300000
517.238037	154.660000
517.331665	153.860000
517.425354	153.200000
517.519043	153.040000
517.612732	153.220000
517.706421	152.980000
517.800049	152.960000
517.893738	152.800000
517.987427	153.280000
518.081116	153.320000
518.174744	153.100000
518.268433	153.340000
518.362122	154.360000
518.455811	153.980000
518.549438	154.260000
518.643127	155.520000
518.736816	155.420000
518.830505	154.500000
518.924133	154.920000
519.017822	154.800000
519.111511	154.120000
519.205200	154.560000
519.298828	154.600000
519.392517	154.300000
519.486206	154.600000
519.579895	154.580000
519.673523	154.320000
519.767212	154.600000
519.860901	154.960000
519.954590	154.380000
520.048279	153.700000
520.141907	153.380000
520.235596	154.000000
520.329224	154.060000
520.422974	154.160000
520.516602	154.360000
520.610291	154.320000
520.703918	153.720000
520.797607	153.260000
520.891296	153.300000
520.984985	153.720000
521.078613	154.420000
521.172302	153.980000
521.265930	154.820000
521.359680	155.160000
521.453308	154.820000
521.546997	154.360000
521.640625	154.860000
521.734314	154.300000
521.827942	154.120000
521.921692	154.480000
522.015320	154.640000
522.109009	154.420000
522.202698	154.200000
522.296326	153.920000
522.390015	154.240000
522.483704	154.180000
522.577393	153.760000
522.671021	153.580000
522.764709	153.180000
522.858337	153.200000
522.952026	152.980000
523.045654	153.860000
523.139404	154.460000
523.233032	154.740000
523.326721	154.320000
523.420349	154.720000
523.514038	154.040000
523.607666	154.080000
523.701355	153.780000
523.795044	153.760000
523.888733	153.680000
523.982361	154.140000
524.076050	153.920000
524.169678	154.340000
524.263367	153.780000
524.356995	153.540000
524.450684	153.160000
524.544373	153.020000
524.638062	152.860000
524.731750	153.600000
524.825378	153.440000
524.919067	153.260000
525.012695	153.340000
525.106384	153.000000
525.200012	152.840000
525.293701	152.720000
525.387329	153.000000
525.481018	152.900000
525.574646	153.600000
525.668396	153.600000
525.762024	154.300000
525.855713	154.560000
525.949341	154.280000
526.043030	154.360000
526.136658	154.120000
526.230347	153.520000
526.323975	153.060000
526.417664	153.340000
526.511292	153.420000
526.604980	153.380000
526.698608	153.400000
526.792297	153.460000
526.885925	153.600000
526.979614	153.600000
527.073303	153.520000
527.166931	153.760000
527.260620	154.100000
527.354309	154.360000
527.447998	153.980000
527.541626	153.900000
527.635315	153.760000
527.728943	154.160000
527.822632	153.900000
527.916260	153.700000
528.009949	154.260000
528.103577	154.100000
528.197266	153.180000
528.290894	153.100000
528.384583	152.980000
528.478210	152.800000
528.571899	153.160000
528.665527	153.860000
528.759216	153.920000
528.852844	154.580000
528.946533	154.760000
529.040161	154.500000
529.133850	154.020000
529.227478	154.300000
529.321167	154.420000
529.414856	154.280000
529.508484	154.980000
529.602173	154.980000
529.695801	154.380000
529.789490	153.740000
529.883057	153.640000
529.976746	153.220000
530.070374	153.720000
530.164062	153.940000
530.257690	154.580000
530.351379	154.860000
530.445007	154.720000
530.538696	153.780000
530.632324	154.000000
530.726013	153.780000
530.819641	153.760000
530.913330	153.860000
531.006958	154.220000
531.100647	154.320000
531.194275	154.060000
531.287964	153.900000
531.381592	153.620000
531.475220	153.780000
531.568848	153.440000
531.662537	153.360000
531.756226	153.560000
531.849854	153.480000
531.943542	153.460000
532.037170	152.980000
532.130859	153.500000
532.224487	152.980000
532.318176	152.780000
532.411804	153.300000
532.505432	153.920000
532.599060	153.500000
532.692749	153.440000
532.786377	154.200000
532.880066	153.300000
532.973694	152.600000
533.067383	152.380000
533.161011	152.460000
533.254639	152.160000
533.348267	152.100000
533.441956	152.820000
533.535583	152.860000
533.629272	152.960000
533.722900	152.280000
533.816589	152.360000
533.910156	152.300000
534.003845	152.040000
534.097534	152.280000
534.191162	153.040000
534.284851	153.340000
534.378479	153.160000
534.472107	153.280000
534.565735	152.940000
534.659424	153.120000
534.753052	153.200000
534.846741	152.660000
534.940369	153.600000
535.033997	153.580000
535.127625	153.360000
535.221313	153.900000
535.314941	154.320000
535.408630	153.360000
535.502197	153.840000
535.595886	153.460000
535.689514	152.740000
535.783203	153.260000
535.876831	153.900000
535.970459	153.880000
536.064087	153.840000
536.157776	154.200000
536.251404	154.340000
536.345093	153.980000
536.438721	153.780000
536.532349	154.320000
536.626038	154.140000
536.719666	153.940000
536.813293	153.780000
536.906921	153.520000
537.000610	153.580000
537.094238	153.420000
537.187866	153.340000
537.281494	153.140000
537.375183	153.400000
537.468811	153.100000
537.562439	153.000000
537.656067	152.860000
537.749756	153.180000
537.843384	153.880000
537.937012	154.100000
538.030640	154.200000
538.124329	154.180000
538.217896	154.620000
538.311584	154.240000
538.405212	154.140000
538.498901	154.360000
538.592468	155.120000
538.686157	154.500000
538.779785	153.720000
538.873413	153.580000
538.967102	153.260000
539.060730	152.320000
539.154358	152.640000
539.247986	153.140000
539.341675	153.220000
539.435242	153.480000
539.528931	153.880000
539.622559	153.320000
539.716187	153.660000
539.809814	153.820000
539.903503	153.720000
539.997070	153.360000
540.090759	153.820000
540.184387	153.700000
540.278015	153.960000
540.371643	154.080000
540.465332	154.460000
540.558899	154.460000
540.652588	154.240000
540.746216	153.840000
540.839844	153.980000
540.933472	153.700000
541.027100	153.300000
541.120728	153.340000
541.214417	153.480000
541.308044	153.580000
541.401672	153.440000
541.495300	153.560000
541.588928	153.540000
541.682617	153.200000
541.776184	152.680000
541.869873	153.040000
541.963440	153.320000
542.057129	153.300000
542.150757	153.440000
542.244385	153.200000
542.338013	152.600000
542.431641	152.400000
542.525269	152.560000
542.618958	153.100000
542.712524	153.780000
542.806213	154.020000
542.899780	154.480000
542.993469	153.940000
543.087036	153.260000
543.180725	152.580000
543.274292	152.860000
543.367981	152.700000
543.461548	153.260000
543.555237	153.380000
543.648926	154.140000
543.742493	154.900000
543.836182	154.820000
543.929749	154.620000
544.023437	154.660000
544.117004	154.500000
544.210693	153.940000
544.304260	153.960000
544.397949	153.840000
544.491516	154.200000
544.585205	154.020000
544.678772	153.560000
544.772461	154.040000
544.866028	153.900000
544.959717	153.740000
545.053284	153.400000
545.146973	153.900000
545.240540	153.560000
545.334229	154.220000
545.427795	154.320000
545.521423	154.900000
545.615051	154.500000
545.708679	155.060000
545.802307	154.700000
545.895935	154.820000
545.989624	155.300000
546.083191	155.040000
546.176880	154.620000
546.270447	154.160000
546.364136	154.440000
546.457703	153.580000
546.551331	153.960000
546.644958	154.080000
546.738586	154.720000
546.832214	154.020000
546.925842	154.260000
547.019409	154.500000
547.113098	153.900000
547.206665	153.360000
547.300354	153.700000
547.393921	154.060000
547.487549	154.200000
547.581177	153.900000
547.674805	153.800000
547.768433	152.960000
547.862061	152.760000
547.955627	151.960000
548.049316	153.000000
548.142883	153.340000
548.236572	154.260000
548.330139	154.340000
548.423767	154.740000
548.517456	154.600000
548.611023	154.740000
548.704651	153.800000
548.798279	153.840000
548.891907	154.420000
548.985474	153.920000
549.079163	154.280000
549.172729	154.460000
549.266357	153.940000
549.359985	153.580000
549.453613	153.220000
549.547180	152.860000
549.640869	153.420000
549.734436	153.540000
549.828064	153.960000
549.921631	154.140000
550.015320	153.520000
550.108887	154.080000
550.202515	154.280000
550.296143	153.700000
550.389771	153.980000
550.483337	154.800000
550.576965	154.060000
550.670593	154.240000
550.764221	154.420000
550.857849	154.180000
550.951477	153.500000
551.045105	153.320000
551.138672	153.400000
551.232300	152.660000
551.325928	153.240000
551.419556	154.000000
551.513123	154.140000
551.606750	153.640000
551.700378	154.440000
551.794006	154.180000
551.887573	153.740000
551.981201	154.420000
552.074768	154.620000
552.168457	154.140000
552.262024	154.820000
552.355652	154.900000
552.449219	154.720000
552.542847	154.800000
552.636475	154.840000
552.730103	153.840000
552.823669	153.640000
552.917297	153.260000
553.010864	152.980000
553.104553	153.440000
553.198181	153.160000
553.291748	153.740000
553.385376	154.000000
553.478943	153.960000
553.572571	153.560000
553.666199	153.900000
553.759827	153.420000
553.853394	152.580000
553.947021	153.040000
554.040588	153.240000
554.134216	153.720000
554.227783	154.620000
554.321411	155.720000
554.415039	155.060000
554.508667	154.900000
554.602234	154.760000
554.695862	153.600000
554.789429	153.580000
554.883057	153.620000
554.976624	153.480000
555.070251	153.380000
555.163818	153.640000
555.257507	153.260000
555.351074	153.460000
555.444702	154.800000
555.538330	154.500000
555.631897	154.600000
555.725525	154.420000
555.819092	154.260000
555.912720	152.560000
556.006287	153.240000
556.099915	153.280000
556.193481	153.520000
556.287109	153.840000
556.380676	153.920000
556.474304	153.500000
556.567871	153.860000
556.661499	153.180000
556.755066	153.300000
556.848694	153.880000
556.942261	153.860000
557.035889	153.800000
557.129517	154.320000
557.223145	154.700000
557.316711	154.600000
557.410339	154.540000
557.503906	153.600000
557.597473	153.900000
557.691040	153.540000
557.784668	153.400000
557.878296	153.440000
557.971863	154.400000
558.065491	154.300000
558.159058	153.880000
558.252686	154.600000
558.346252	155.340000
558.439880	154.500000
558.533447	154.200000
558.627075	153.940000
558.720642	153.160000
558.814270	152.440000
558.907837	152.560000
559.001465	152.280000
559.095032	153.360000
559.188660	153.920000
559.282227	153.180000
559.375854	153.920000
559.469360	153.660000
559.562988	153.640000
559.656555	153.200000
559.750183	154.120000
559.843750	154.020000
559.937378	154.420000
560.030945	154.180000
560.124573	0.000000
560.218140	0.000000
560.311707	0.000000
560.405334	0.000000
560.498901	0.000000
560.592529	0.000000
560.686096	0.000000
560.779724	0.000000
560.873291	0.000000
560.966858	0.000000
561.060425	0.000000
561.154053	0.000000
561.247620	0.000000
561.341248	0.000000
561.434814	0.000000
561.528381	0.000000
561.621948	0.000000
561.715576	0.000000
561.809143	0.000000
561.902771	0.000000
561.996277	0.000000
562.089905	0.000000
562.183472	0.000000
562.277100	0.000000
