Model Number: SPM-002-B   
Serial Number: 70087108
Firmware Version: 004.15.4
Exposure Time: 100000.000000us
Data Taken on: 15-01-2021 17:47:14.712
Wavelength	Amplitude
221.570786	0.000000
221.663406	0.000000
221.756027	0.000000
221.848648	0.000000
221.941269	0.000000
222.033905	0.000000
222.126526	0.000000
222.219162	0.000000
222.311798	0.000000
222.404419	0.000000
222.497055	0.000000
222.589676	0.000000
222.682312	0.000000
222.774933	0.000000
222.867569	0.000000
222.960205	0.000000
223.052841	0.000000
223.145462	0.000000
223.238098	0.000000
223.330734	0.000000
223.423386	0.000000
223.516022	0.000000
223.608658	0.000000
223.701309	0.000000
223.793945	0.000000
223.886581	0.000000
223.979218	0.000000
224.071869	0.000000
224.164505	0.000000
224.257156	0.000000
224.349792	0.000000
224.442444	0.000000
224.535095	0.000000
224.627747	0.000000
224.720398	0.000000
224.813034	0.000000
224.905685	0.000000
224.998337	154.020000
225.090988	153.760000
225.183640	153.640000
225.276291	153.380000
225.368942	153.560000
225.461594	154.400000
225.554245	154.480000
225.646912	154.480000
225.739578	155.160000
225.832230	155.500000
225.924896	154.600000
226.017548	155.040000
226.110199	156.000000
226.202866	155.220000
226.295532	154.920000
226.388184	155.020000
226.480850	154.120000
226.573517	153.380000
226.666168	153.740000
226.758835	154.060000
226.851501	154.420000
226.944183	154.800000
227.036850	154.140000
227.129517	154.240000
227.222183	154.500000
227.314850	154.620000
227.407516	154.760000
227.500198	156.060000
227.592865	155.360000
227.685532	154.580000
227.778214	154.220000
227.870880	154.660000
227.963562	154.520000
228.056229	155.320000
228.148926	155.580000
228.241592	156.500000
228.334274	156.060000
228.426956	155.800000
228.519638	155.820000
228.612305	155.480000
228.704987	154.900000
228.797668	155.000000
228.890350	154.800000
228.983032	154.220000
229.075714	154.980000
229.168396	154.700000
229.261108	154.080000
229.353790	153.940000
229.446472	154.520000
229.539169	154.160000
229.631851	153.940000
229.724533	154.580000
229.817230	154.880000
229.909912	155.560000
230.002609	155.280000
230.095306	155.580000
230.187988	155.500000
230.280685	155.280000
230.373383	153.820000
230.466095	153.880000
230.558792	153.840000
230.651474	153.840000
230.744171	153.820000
230.836868	154.020000
230.929581	154.220000
231.022278	154.340000
231.114975	154.200000
231.207672	153.980000
231.300369	154.340000
231.393082	154.300000
231.485779	154.280000
231.578506	154.240000
231.671204	154.360000
231.763916	154.280000
231.856613	154.120000
231.949326	154.140000
232.042023	154.000000
232.134735	154.040000
232.227448	153.800000
232.320160	154.240000
232.412872	154.140000
232.505585	155.140000
232.598297	155.560000
232.691010	155.320000
232.783722	155.260000
232.876450	155.940000
232.969162	155.120000
233.061874	154.340000
233.154587	154.400000
233.247314	153.980000
233.340027	153.160000
233.432739	153.660000
233.525467	153.660000
233.618179	154.220000
233.710907	154.160000
233.803635	154.700000
233.896347	154.140000
233.989090	155.240000
234.081818	155.040000
234.174545	155.120000
234.267258	154.620000
234.359985	154.860000
234.452713	154.200000
234.545441	154.020000
234.638168	154.020000
234.730896	154.680000
234.823639	154.420000
234.916367	155.020000
235.009094	155.080000
235.101822	155.140000
235.194580	155.060000
235.287308	155.360000
235.380051	154.480000
235.472778	154.660000
235.565521	155.080000
235.658249	154.420000
235.750992	154.260000
235.843719	154.360000
235.936462	154.640000
236.029205	153.980000
236.121948	153.420000
236.214691	153.860000
236.307449	154.460000
236.400192	153.600000
236.492935	153.620000
236.585678	154.600000
236.678421	154.420000
236.771164	154.200000
236.863907	155.180000
236.956665	155.700000
237.049408	157.260000
237.142151	156.820000
237.234909	157.460000
237.327652	157.260000
237.420410	156.880000
237.513153	155.440000
237.605927	155.620000
237.698669	154.820000
237.791428	153.900000
237.884186	154.420000
237.976944	153.920000
238.069702	154.160000
238.162445	153.540000
238.255203	153.840000
238.347961	153.840000
238.440720	153.780000
238.533478	153.720000
238.626266	153.880000
238.719025	154.360000
238.811783	154.000000
238.904541	153.860000
238.997314	153.680000
239.090073	153.520000
239.182831	153.640000
239.275604	154.640000
239.368362	154.660000
239.461136	154.760000
239.553909	155.160000
239.646667	155.000000
239.739441	154.040000
239.832214	154.680000
239.925003	154.940000
240.017761	155.560000
240.110535	156.120000
240.203308	155.900000
240.296082	155.820000
240.388855	155.500000
240.481628	155.340000
240.574417	155.260000
240.667191	155.420000
240.759964	154.940000
240.852737	155.000000
240.945526	154.600000
241.038315	153.980000
241.131088	154.140000
241.223877	154.660000
241.316650	154.280000
241.409439	154.560000
241.502228	154.120000
241.595001	154.660000
241.687790	154.200000
241.780579	154.160000
241.873367	154.320000
241.966141	154.920000
242.058929	153.980000
242.151718	154.440000
242.244507	155.060000
242.337311	154.120000
242.430099	154.840000
242.522903	155.360000
242.615692	154.820000
242.708481	154.780000
242.801270	155.400000
242.894073	154.920000
242.986862	154.840000
243.079651	155.620000
243.172455	155.300000
243.265244	155.540000
243.358063	154.700000
243.450867	155.180000
243.543655	154.760000
243.636459	154.760000
243.729263	155.140000
243.822067	155.900000
243.914856	155.820000
244.007660	155.900000
244.100464	156.220000
244.193268	155.580000
244.286072	155.380000
244.378876	154.820000
244.471680	154.500000
244.564499	154.520000
244.657318	155.240000
244.750122	155.240000
244.842926	154.840000
244.935745	155.620000
245.028549	155.260000
245.121368	154.580000
245.214172	154.560000
245.306992	155.200000
245.399796	154.360000
245.492615	154.380000
245.585434	154.080000
245.678253	154.160000
245.771072	153.980000
245.863892	154.560000
245.956711	154.460000
246.049530	154.620000
246.142349	154.360000
246.235168	154.400000
246.327988	154.620000
246.420807	154.620000
246.513626	154.640000
246.606445	154.560000
246.699280	154.460000
246.792099	154.100000
246.884918	153.900000
246.977753	153.560000
247.070587	153.800000
247.163422	153.940000
247.256241	154.040000
247.349075	154.540000
247.441895	155.020000
247.534729	155.120000
247.627563	154.940000
247.720383	155.280000
247.813217	155.060000
247.906052	154.720000
247.998886	154.840000
248.091736	155.000000
248.184570	154.520000
248.277405	154.600000
248.370239	155.540000
248.463074	156.220000
248.555908	156.440000
248.648743	156.500000
248.741592	156.640000
248.834427	155.780000
248.927261	154.860000
249.020111	154.880000
249.112946	155.460000
249.205795	154.700000
249.298630	155.220000
249.391495	154.820000
249.484344	154.400000
249.577179	154.120000
249.670029	154.700000
249.762878	154.820000
249.855728	155.280000
249.948563	155.420000
250.041412	154.580000
250.134262	154.720000
250.227112	154.640000
250.319962	154.600000
250.412827	154.620000
250.505692	154.440000
250.598541	154.400000
250.691391	153.840000
250.784241	154.000000
250.877106	154.240000
250.969955	154.700000
251.062805	155.240000
251.155670	155.900000
251.248520	155.640000
251.341385	156.100000
251.434235	155.860000
251.527100	155.280000
251.619965	154.940000
251.712814	155.800000
251.805695	155.220000
251.898560	155.440000
251.991425	155.880000
252.084290	155.860000
252.177155	155.000000
252.270020	154.860000
252.362885	154.680000
252.455750	154.580000
252.548615	154.360000
252.641479	154.360000
252.734360	154.260000
252.827240	154.320000
252.920105	154.160000
253.012970	154.020000
253.105850	154.060000
253.198715	153.840000
253.291595	154.060000
253.384460	153.720000
253.477341	153.960000
253.570221	154.000000
253.663086	154.020000
253.755966	155.040000
253.848846	155.360000
253.941727	155.540000
254.034592	155.600000
254.127472	155.280000
254.220367	154.680000
254.313248	154.700000
254.406128	154.100000
254.499008	154.280000
254.591904	155.340000
254.684784	155.440000
254.777664	155.260000
254.870544	155.420000
254.963440	155.400000
255.056335	155.200000
255.149216	154.800000
255.242111	155.400000
255.334991	155.780000
255.427887	155.520000
255.520767	155.540000
255.613663	155.700000
255.706558	154.860000
255.799438	154.660000
255.892334	154.560000
255.985229	154.280000
256.078125	154.160000
256.171021	154.400000
256.263916	154.780000
256.356812	155.120000
256.449707	155.280000
256.542603	155.100000
256.635498	155.720000
256.728394	155.620000
256.821289	155.380000
256.914215	155.660000
257.007080	155.800000
257.100006	155.580000
257.192932	155.940000
257.285828	156.260000
257.378723	155.560000
257.471619	155.560000
257.564545	155.120000
257.657440	155.260000
257.750336	155.280000
257.843262	155.200000
257.936157	156.520000
258.029053	156.880000
258.121979	156.480000
258.214874	155.980000
258.307800	155.980000
258.400696	154.500000
258.493622	154.280000
258.586517	153.560000
258.679443	154.220000
258.772339	154.120000
258.865265	153.660000
258.958160	153.320000
259.051086	154.100000
259.144012	153.660000
259.236938	154.420000
259.329834	154.740000
259.422791	154.400000
259.515717	153.640000
259.608612	153.440000
259.701538	153.360000
259.794464	153.420000
259.887390	153.700000
259.980316	154.100000
260.073212	154.060000
260.166138	153.200000
260.259064	153.740000
260.351990	154.280000
260.444916	154.220000
260.537842	154.640000
260.630768	155.300000
260.723694	154.740000
260.816620	154.740000
260.909546	154.620000
261.002472	154.200000
261.095398	154.120000
261.188354	154.380000
261.281281	153.760000
261.374207	153.880000
261.467133	154.880000
261.560089	154.900000
261.653015	154.700000
261.745972	155.620000
261.838867	156.220000
261.931824	156.000000
262.024780	155.320000
262.117706	155.320000
262.210663	155.160000
262.303589	154.580000
262.396515	154.400000
262.489471	155.740000
262.582397	155.680000
262.675354	155.020000
262.768280	155.180000
262.861237	155.060000
262.954163	154.640000
263.047119	154.940000
263.140045	155.000000
263.233002	154.860000
263.325958	154.720000
263.418884	154.220000
263.511841	154.040000
263.604797	154.080000
263.697723	154.100000
263.790680	154.060000
263.883636	154.580000
263.976593	154.700000
264.069550	154.860000
264.162476	154.700000
264.255463	154.880000
264.348419	154.580000
264.441376	154.780000
264.534332	154.220000
264.627289	154.340000
264.720245	154.600000
264.813202	154.220000
264.906158	154.100000
264.999115	155.100000
265.092072	155.000000
265.185028	155.300000
265.277985	155.840000
265.370941	155.480000
265.463898	155.020000
265.556854	154.880000
265.649811	153.900000
265.742798	153.780000
265.835754	154.200000
265.928711	154.560000
266.021667	154.760000
266.114655	155.160000
266.207611	155.380000
266.300568	154.640000
266.393585	154.000000
266.486511	154.160000
266.579498	153.480000
266.672485	153.140000
266.765442	153.100000
266.858429	153.600000
266.951385	153.260000
267.044342	153.760000
267.137329	153.780000
267.230316	154.400000
267.323273	153.980000
267.416260	154.440000
267.509216	154.320000
267.602203	154.120000
267.695160	154.420000
267.788147	154.360000
267.881134	154.100000
267.974091	154.180000
268.067078	154.400000
268.160065	154.100000
268.253052	154.080000
268.346008	154.120000
268.438995	153.880000
268.531982	153.680000
268.624969	153.540000
268.717987	154.320000
268.810944	154.320000
268.903961	154.540000
268.996948	154.380000
269.089905	154.740000
269.182892	154.240000
269.275879	154.680000
269.368866	154.240000
269.461853	154.340000
269.554871	154.240000
269.647858	154.320000
269.740845	154.060000
269.833832	154.780000
269.926819	154.780000
270.019806	154.840000
270.112793	154.480000
270.205811	154.480000
270.298798	154.320000
270.391785	154.940000
270.484772	154.540000
270.577789	154.520000
270.670776	154.060000
270.763763	153.760000
270.856750	153.820000
270.949768	153.780000
271.042786	154.180000
271.135773	154.520000
271.228790	154.980000
271.321808	154.200000
271.414795	154.040000
271.507782	153.800000
271.600800	153.420000
271.693817	153.100000
271.786804	153.600000
271.879822	154.140000
271.972809	154.060000
272.065826	154.820000
272.158844	154.540000
272.251831	155.420000
272.344849	155.340000
272.437866	155.380000
272.530853	155.300000
272.623871	155.600000
272.716888	154.280000
272.809906	154.580000
272.902893	154.480000
272.995911	154.040000
273.088928	154.080000
273.181946	154.440000
273.274963	153.820000
273.367981	154.020000
273.460999	154.060000
273.554047	154.340000
273.647003	154.780000
273.740051	155.280000
273.833069	155.560000
273.926086	155.940000
274.019135	155.720000
274.112152	155.200000
274.205170	155.020000
274.298187	155.260000
274.391205	154.640000
274.484222	154.700000
274.577240	154.820000
274.670258	154.860000
274.763306	154.520000
274.856323	155.040000
274.949341	155.080000
275.042358	155.480000
275.135406	155.060000
275.228424	155.040000
275.321442	154.880000
275.414490	154.420000
275.507507	154.680000
275.600525	155.220000
275.693573	154.940000
275.786591	154.460000
275.879669	154.900000
275.972656	154.240000
276.065735	153.940000
276.158752	154.520000
276.251801	155.620000
276.344818	155.800000
276.437866	155.980000
276.530884	155.800000
276.623932	155.160000
276.716980	154.880000
276.809998	154.680000
276.903046	154.420000
276.996094	155.360000
277.089111	156.020000
277.182159	156.460000
277.275208	155.920000
277.368256	156.160000
277.461304	155.700000
277.554321	154.920000
277.647369	154.440000
277.740417	154.840000
277.833466	154.640000
277.926514	154.540000
278.019562	155.120000
278.112610	154.480000
278.205688	154.560000
278.298706	154.460000
278.391785	154.320000
278.484833	153.860000
278.577881	153.880000
278.670929	154.300000
278.763977	154.480000
278.857025	154.740000
278.950073	154.820000
279.043121	154.840000
279.136169	154.400000
279.229248	154.240000
279.322296	154.200000
279.415344	154.300000
279.508392	154.440000
279.601440	154.520000
279.694519	154.360000
279.787567	154.040000
279.880615	153.600000
279.973694	153.660000
280.066742	153.780000
280.159790	154.160000
280.252869	153.840000
280.345917	154.480000
280.438995	154.220000
280.532074	153.940000
280.625122	154.100000
280.718201	155.120000
280.811279	154.740000
280.904327	155.060000
280.997406	155.340000
281.090454	155.180000
281.183533	154.600000
281.276581	154.680000
281.369659	154.460000
281.462738	154.760000
281.555786	154.740000
281.648865	154.760000
281.741943	154.760000
281.835022	155.140000
281.928070	154.480000
282.021149	154.220000
282.114227	154.120000
282.207306	154.240000
282.300385	154.780000
282.393433	155.060000
282.486511	155.420000
282.579590	156.140000
282.672668	156.600000
282.765747	155.760000
282.858856	155.560000
282.951904	155.360000
283.045013	155.200000
283.138062	155.060000
283.231171	155.180000
283.324249	155.560000
283.417328	155.980000
283.510406	155.600000
283.603485	155.440000
283.696564	155.440000
283.789642	155.120000
283.882751	154.560000
283.975830	155.020000
284.068909	154.560000
284.161987	155.100000
284.255066	154.760000
284.348175	155.140000
284.441254	154.640000
284.534332	155.340000
284.627441	155.080000
284.720520	155.160000
284.813599	155.280000
284.906708	155.220000
284.999786	154.700000
285.092896	154.240000
285.185974	155.460000
285.279053	154.520000
285.372192	154.920000
285.465240	155.540000
285.558380	155.540000
285.651459	154.820000
285.744568	156.320000
285.837677	155.700000
285.930756	155.780000
286.023865	155.880000
286.116943	155.360000
286.210052	155.080000
286.303162	154.920000
286.396240	154.500000
286.489349	154.520000
286.582458	154.860000
286.675568	154.080000
286.768646	154.560000
286.861755	154.700000
286.954865	155.440000
287.047974	155.060000
287.141083	155.240000
287.234161	155.060000
287.327271	154.700000
287.420380	154.760000
287.513519	154.800000
287.606598	154.980000
287.699738	155.080000
287.792816	154.920000
287.885956	154.380000
287.979034	154.400000
288.072174	154.320000
288.165283	154.460000
288.258392	154.880000
288.351501	154.280000
288.444611	154.740000
288.537720	155.160000
288.630859	154.960000
288.723969	155.400000
288.817078	155.980000
288.910187	155.780000
289.003296	155.100000
289.096436	155.060000
289.189545	154.640000
289.282654	154.560000
289.375763	154.980000
289.468903	155.620000
289.562012	155.860000
289.655121	155.560000
289.748260	155.700000
289.841400	155.880000
289.934509	155.360000
290.027649	155.460000
290.120728	155.320000
290.213898	155.560000
290.306976	154.900000
290.400146	155.260000
290.493256	154.460000
290.586395	154.900000
290.679535	154.780000
290.772644	154.900000
290.865784	154.040000
290.958893	154.620000
291.052032	153.980000
291.145172	153.780000
291.238281	153.500000
291.331421	153.740000
291.424561	154.240000
291.517670	154.700000
291.610809	154.720000
291.703949	154.540000
291.797089	155.140000
291.890228	154.660000
291.983337	154.260000
292.076477	154.140000
292.169617	154.800000
292.262756	154.440000
292.355927	154.280000
292.449036	154.500000
292.542206	154.480000
292.635315	154.440000
292.728485	154.920000
292.821625	154.280000
292.914764	155.460000
293.007904	155.700000
293.101044	155.600000
293.194183	155.140000
293.287323	155.780000
293.380463	154.940000
293.473602	154.640000
293.566742	154.800000
293.659882	155.120000
293.753021	155.460000
293.846191	155.220000
293.939331	154.940000
294.032471	154.640000
294.125610	154.460000
294.218781	154.600000
294.311920	155.000000
294.405060	155.340000
294.498230	155.600000
294.591370	155.480000
294.684540	154.820000
294.777679	154.360000
294.870850	154.500000
294.963959	154.120000
295.057159	154.080000
295.150299	154.540000
295.243469	154.480000
295.336609	153.880000
295.429779	154.080000
295.522919	154.420000
295.616089	154.180000
295.709229	154.840000
295.802399	155.300000
295.895569	154.980000
295.988708	154.840000
296.081879	155.140000
296.175018	154.540000
296.268188	154.400000
296.361359	155.100000
296.454529	155.100000
296.547668	155.000000
296.640839	155.280000
296.734009	155.020000
296.827179	155.180000
296.920319	155.640000
297.013519	155.040000
297.106659	155.080000
297.199860	155.260000
297.292999	154.600000
297.386200	153.900000
297.479309	154.120000
297.572510	153.900000
297.665680	153.820000
297.758850	154.220000
297.852020	154.220000
297.945190	154.340000
298.038361	154.080000
298.131531	155.220000
298.224701	154.840000
298.317871	154.640000
298.411072	154.180000
298.504242	154.180000
298.597412	153.300000
298.690582	153.660000
298.783752	153.900000
298.876923	154.500000
298.970093	154.800000
299.063293	155.480000
299.156464	155.660000
299.249634	155.860000
299.342834	156.080000
299.436005	156.440000
299.529205	155.740000
299.622345	155.580000
299.715576	155.000000
299.808716	154.640000
299.901917	154.300000
299.995117	154.660000
300.088287	154.700000
300.181488	155.040000
300.274658	154.780000
300.367828	155.080000
300.461029	155.200000
300.554199	155.420000
300.647400	155.320000
300.740601	156.020000
300.833771	155.740000
300.926971	155.660000
301.020142	155.100000
301.113342	155.000000
301.206512	155.100000
301.299713	155.420000
301.392914	155.220000
301.486084	155.860000
301.579285	156.140000
301.672516	156.260000
301.765686	155.820000
301.858887	155.880000
301.952057	155.440000
302.045288	155.460000
302.138458	154.880000
302.231659	154.700000
302.324860	154.360000
302.418060	154.300000
302.511261	154.200000
302.604462	154.540000
302.697662	154.740000
302.790863	154.760000
302.884064	154.100000
302.977264	154.200000
303.070465	154.180000
303.163666	154.720000
303.256866	155.260000
303.350067	155.840000
303.443268	155.720000
303.536469	155.760000
303.629669	154.920000
303.722870	154.980000
303.816071	154.680000
303.909271	154.600000
304.002472	153.880000
304.095673	153.940000
304.188934	153.080000
304.282104	154.060000
304.375336	154.320000
304.468506	154.500000
304.561768	154.480000
304.654968	155.260000
304.748169	154.440000
304.841370	154.080000
304.934601	154.420000
305.027802	154.160000
305.121002	153.440000
305.214233	153.720000
305.307434	153.800000
305.400665	154.400000
305.493866	154.660000
305.587097	155.440000
305.680298	155.100000
305.773499	156.080000
305.866730	155.500000
305.959930	155.920000
306.053162	155.660000
306.146393	155.680000
306.239594	154.360000
306.332825	154.300000
306.426025	154.540000
306.519287	154.360000
306.612488	154.240000
306.705719	154.360000
306.798920	154.520000
306.892181	153.780000
306.985352	153.460000
307.078613	153.060000
307.171844	153.740000
307.265045	153.200000
307.358276	153.160000
307.451508	153.880000
307.544739	154.720000
307.637970	153.900000
307.731201	153.960000
307.824402	154.800000
307.917633	154.800000
308.010864	155.240000
308.104095	156.020000
308.197327	156.160000
308.290558	156.020000
308.383789	155.380000
308.477020	154.640000
308.570251	153.780000
308.663483	153.600000
308.756714	153.180000
308.849976	153.520000
308.943176	154.040000
309.036438	154.160000
309.129639	154.160000
309.222900	154.420000
309.316101	154.180000
309.409393	153.820000
309.502625	153.960000
309.595856	153.980000
309.689087	153.980000
309.782318	154.280000
309.875580	154.160000
309.968811	154.320000
310.062042	154.280000
310.155273	154.200000
310.248535	154.560000
310.341766	154.360000
310.434998	154.060000
310.528259	154.200000
310.621490	154.520000
310.714722	153.420000
310.807983	153.920000
310.901215	154.180000
310.994476	154.220000
311.087708	153.700000
311.181000	154.240000
311.274200	153.820000
311.367462	154.060000
311.460693	153.840000
311.553986	154.460000
311.647186	154.640000
311.740479	155.060000
311.833710	154.520000
311.926971	154.900000
312.020203	154.280000
312.113464	153.940000
312.206726	153.360000
312.299957	153.780000
312.393219	154.040000
312.486481	154.140000
312.579712	154.440000
312.672974	154.740000
312.766235	154.640000
312.859497	154.240000
312.952759	154.060000
313.045990	154.580000
313.139252	154.280000
313.232513	154.740000
313.325775	155.000000
313.419037	154.900000
313.512299	153.880000
313.605530	154.480000
313.698822	154.240000
313.792053	153.980000
313.885345	153.900000
313.978577	154.340000
314.071869	153.820000
314.165131	153.840000
314.258392	154.400000
314.351654	154.740000
314.444916	154.200000
314.538177	155.000000
314.631439	155.520000
314.724701	155.100000
314.817993	154.720000
314.911255	155.200000
315.004517	154.560000
315.097778	153.940000
315.191040	154.400000
315.284302	154.940000
315.377594	154.740000
315.470856	154.520000
315.564117	154.280000
315.657379	153.640000
315.750671	153.000000
315.843933	153.160000
315.937195	153.020000
316.030518	152.920000
316.123749	152.800000
316.217041	154.020000
316.310303	153.840000
316.403595	154.400000
316.496857	154.960000
316.590149	155.380000
316.683411	154.600000
316.776703	154.700000
316.869965	154.480000
316.963257	154.000000
317.056519	153.340000
317.149811	153.180000
317.243073	153.200000
317.336365	153.280000
317.429626	153.640000
317.522919	154.300000
317.616180	154.540000
317.709473	154.100000
317.802765	154.180000
317.896027	154.040000
317.989319	154.340000
318.082611	154.420000
318.175873	154.700000
318.269165	154.320000
318.362488	154.420000
318.455750	153.820000
318.549042	153.900000
318.642303	154.440000
318.735626	154.400000
318.828888	154.640000
318.922211	154.440000
319.015472	154.860000
319.108765	154.060000
319.202057	154.100000
319.295349	153.980000
319.388641	154.060000
319.481934	153.500000
319.575226	153.700000
319.668518	154.420000
319.761810	154.480000
319.855103	154.600000
319.948395	154.860000
320.041687	155.280000
320.134979	154.780000
320.228271	154.440000
320.321564	154.280000
320.414856	153.960000
320.508148	153.360000
320.601440	153.020000
320.694763	152.820000
320.788025	153.880000
320.881348	153.880000
320.974640	154.120000
321.067963	153.720000
321.161224	153.920000
321.254547	152.740000
321.347839	153.420000
321.441162	153.220000
321.534454	153.900000
321.627747	153.820000
321.721069	154.820000
321.814362	154.660000
321.907654	154.840000
322.000946	154.880000
322.094269	155.500000
322.187561	155.120000
322.280884	155.220000
322.374176	155.460000
322.467468	155.680000
322.560791	155.640000
322.654083	155.900000
322.747406	155.860000
322.840698	155.940000
322.934021	156.140000
323.027344	156.060000
323.120636	155.260000
323.213959	155.200000
323.307251	154.640000
323.400574	154.200000
323.493866	153.780000
323.587219	154.380000
323.680511	154.480000
323.773834	154.840000
323.867157	155.160000
323.960449	155.300000
324.053772	154.980000
324.147095	154.860000
324.240387	155.400000
324.333710	155.560000
324.427032	155.580000
324.520355	155.700000
324.613647	155.100000
324.706970	154.580000
324.800293	154.380000
324.893616	154.940000
324.986938	155.040000
325.080231	155.220000
325.173553	155.540000
325.266876	155.940000
325.360199	155.680000
325.453522	155.260000
325.546875	155.060000
325.640167	155.040000
325.733521	155.040000
325.826813	155.000000
325.920166	154.820000
326.013489	154.800000
326.106812	153.960000
326.200134	153.400000
326.293457	152.820000
326.386780	153.300000
326.480103	153.520000
326.573425	153.780000
326.666748	153.720000
326.760071	154.520000
326.853424	154.520000
326.946747	154.580000
327.040070	155.420000
327.133392	155.100000
327.226715	154.280000
327.320068	153.780000
327.413391	154.220000
327.506714	153.660000
327.600037	153.720000
327.693390	154.320000
327.786713	154.520000
327.880066	154.240000
327.973358	154.560000
328.066742	155.460000
328.160034	155.620000
328.253418	156.040000
328.346710	155.920000
328.440063	155.620000
328.533417	155.020000
328.626740	155.060000
328.720093	154.640000
328.813416	154.360000
328.906769	154.200000
329.000092	154.620000
329.093445	154.300000
329.186768	154.300000
329.280121	154.940000
329.373444	155.540000
329.466797	155.160000
329.560120	155.100000
329.653473	155.400000
329.746796	154.900000
329.840149	154.340000
329.933502	154.280000
330.026825	154.140000
330.120178	153.820000
330.213562	153.920000
330.306854	153.720000
330.400238	153.840000
330.493561	153.460000
330.586945	154.220000
330.680237	154.400000
330.773621	154.900000
330.866974	154.920000
330.960327	155.620000
331.053680	154.980000
331.147003	154.860000
331.240356	155.060000
331.333710	155.000000
331.427063	154.380000
331.520416	154.360000
331.613770	154.340000
331.707123	153.860000
331.800476	153.940000
331.893829	155.100000
331.987152	155.440000
332.080505	155.380000
332.173859	155.540000
332.267212	155.080000
332.360565	154.440000
332.453918	153.980000
332.547333	153.780000
332.640656	153.880000
332.734039	154.300000
332.827362	154.000000
332.920746	154.420000
333.014069	154.860000
333.107452	155.280000
333.200806	155.220000
333.294159	155.640000
333.387543	154.960000
333.480896	154.480000
333.574249	153.800000
333.667603	153.860000
333.760956	153.640000
333.854340	153.920000
333.947693	154.080000
334.041046	154.800000
334.134430	154.900000
334.227783	154.620000
334.321136	154.680000
334.414520	154.180000
334.507874	153.660000
334.601227	153.500000
334.694611	153.460000
334.787964	153.320000
334.881348	153.860000
334.974701	153.780000
335.068085	153.620000
335.161438	153.980000
335.254822	154.140000
335.348175	154.360000
335.441559	154.020000
335.534943	154.760000
335.628296	154.800000
335.721680	154.980000
335.815033	154.980000
335.908417	155.520000
336.001770	155.240000
336.095154	154.940000
336.188538	154.500000
336.281891	153.880000
336.375275	153.420000
336.468658	152.900000
336.562012	152.880000
336.655396	153.420000
336.748779	154.080000
336.842133	154.360000
336.935516	154.760000
337.028900	154.780000
337.122284	154.420000
337.215637	154.340000
337.309021	153.860000
337.402435	153.700000
337.495789	153.880000
337.589203	153.960000
337.682526	153.540000
337.775940	154.080000
337.869324	154.100000
337.962708	153.540000
338.056091	153.960000
338.149475	153.660000
338.242859	153.620000
338.336243	153.340000
338.429626	153.980000
338.523010	153.560000
338.616394	153.900000
338.709778	153.780000
338.803162	154.220000
338.896545	154.080000
338.989929	153.600000
339.083313	153.940000
339.176697	153.920000
339.270081	153.660000
339.363464	154.200000
339.456848	154.920000
339.550232	154.500000
339.643616	154.600000
339.737030	154.520000
339.830383	153.980000
339.923828	153.980000
340.017181	154.260000
340.110596	154.360000
340.203949	154.720000
340.297363	154.160000
340.390778	154.200000
340.484161	154.060000
340.577545	153.860000
340.670959	153.780000
340.764343	153.900000
340.857727	153.940000
340.951111	153.320000
341.044525	153.480000
341.137909	153.100000
341.231293	153.280000
341.324707	152.480000
341.418091	153.720000
341.511505	153.640000
341.604889	153.980000
341.698303	154.020000
341.791687	154.700000
341.885071	154.260000
341.978485	154.080000
342.071899	154.220000
342.165283	154.660000
342.258698	155.020000
342.352081	155.040000
342.445496	155.560000
342.538879	155.420000
342.632324	154.880000
342.725708	154.420000
342.819122	154.100000
342.912506	153.580000
343.005920	153.460000
343.099335	154.460000
343.192719	154.340000
343.286133	154.760000
343.379547	155.020000
343.472931	155.060000
343.566345	154.020000
343.659760	154.280000
343.753143	153.740000
343.846558	153.580000
343.939972	153.460000
344.033386	154.480000
344.126770	154.380000
344.220184	154.860000
344.313599	155.140000
344.407043	155.400000
344.500427	154.400000
344.593872	155.120000
344.687225	154.580000
344.780670	154.080000
344.874054	153.800000
344.967499	154.620000
345.060913	154.080000
345.154327	154.160000
345.247742	154.440000
345.341156	154.120000
345.434570	153.480000
345.527985	153.580000
345.621399	153.560000
345.714813	153.220000
345.808228	153.800000
345.901642	153.700000
345.995056	152.980000
346.088470	153.480000
346.181885	153.840000
346.275299	153.100000
346.368713	153.040000
346.462128	153.280000
346.555573	153.040000
346.648987	153.240000
346.742401	153.400000
346.835815	154.200000
346.929260	154.000000
347.022644	153.900000
347.116119	153.900000
347.209503	154.280000
347.302948	154.500000
347.396362	155.460000
347.489807	155.460000
347.583221	155.820000
347.676636	155.740000
347.770050	154.700000
347.863495	153.860000
347.956909	154.040000
348.050323	153.200000
348.143768	153.260000
348.237183	153.220000
348.330597	153.920000
348.424042	154.100000
348.517456	154.800000
348.610901	155.020000
348.704315	155.200000
348.797760	154.700000
348.891174	153.960000
348.984619	153.480000
349.078033	153.780000
349.171448	154.280000
349.264923	154.080000
349.358337	154.280000
349.451782	154.480000
349.545197	153.600000
349.638641	153.060000
349.732086	152.720000
349.825500	153.500000
349.918945	152.940000
350.012390	153.820000
350.105804	154.480000
350.199249	155.040000
350.292664	155.160000
350.386108	155.480000
350.479553	155.660000
350.572968	155.300000
350.666412	155.360000
350.759857	154.920000
350.853302	155.460000
350.946716	154.920000
351.040161	155.180000
351.133606	155.160000
351.227081	154.920000
351.320465	155.200000
351.413940	155.180000
351.507355	155.160000
351.600830	155.000000
351.694244	154.700000
351.787720	154.160000
351.881104	153.960000
351.974579	153.780000
352.067993	154.480000
352.161469	154.680000
352.254883	154.120000
352.348358	154.260000
352.441803	154.280000
352.535248	153.820000
352.628693	154.320000
352.722137	154.580000
352.815582	154.680000
352.909027	154.800000
353.002472	154.700000
353.095917	154.600000
353.189362	154.940000
353.282806	154.860000
353.376251	154.540000
353.469696	154.120000
353.563141	154.660000
353.656586	154.520000
353.750061	153.840000
353.843475	153.820000
353.936981	154.840000
354.030396	154.200000
354.123871	154.100000
354.217285	155.260000
354.310760	155.660000
354.404175	155.160000
354.497681	154.820000
354.591095	154.640000
354.684570	153.500000
354.777985	153.040000
354.871490	152.760000
354.964935	153.520000
355.058380	154.040000
355.151855	154.040000
355.245300	154.700000
355.338745	155.140000
355.432220	154.880000
355.525665	154.440000
355.619110	155.260000
355.712585	154.700000
355.806030	154.300000
355.899475	153.780000
355.992950	154.260000
356.086426	154.560000
356.179871	154.900000
356.273346	155.160000
356.366791	155.720000
356.460266	155.840000
356.553711	155.280000
356.647186	154.840000
356.740631	154.560000
356.834106	154.020000
356.927551	153.860000
357.021027	154.040000
357.114471	154.460000
357.207947	154.840000
357.301422	155.320000
357.394867	155.200000
357.488342	155.380000
357.581818	155.240000
357.675262	154.900000
357.768738	154.740000
357.862213	154.180000
357.955658	154.180000
358.049133	154.080000
358.142609	154.540000
358.236053	154.340000
358.329529	154.740000
358.423035	154.580000
358.516449	154.220000
358.609955	154.440000
358.703400	155.240000
358.796906	155.220000
358.890350	154.780000
358.983826	155.120000
359.077271	154.300000
359.170776	153.700000
359.264221	153.740000
359.357727	154.520000
359.451172	154.800000
359.544647	155.240000
359.638123	155.240000
359.731598	155.500000
359.825073	155.260000
359.918549	155.300000
360.012024	155.560000
360.105499	155.180000
360.198975	155.320000
360.292450	155.340000
360.385925	155.260000
360.479401	154.320000
360.572876	154.660000
360.666351	154.820000
360.759857	154.660000
360.853302	154.720000
360.946808	154.760000
361.040253	154.460000
361.133759	153.780000
361.227203	153.960000
361.320709	153.580000
361.414154	153.920000
361.507660	154.740000
361.601105	155.320000
361.694641	155.740000
361.788086	155.800000
361.881592	156.200000
361.975067	155.520000
362.068542	155.840000
362.162018	155.300000
362.255524	154.920000
362.348999	155.080000
362.442474	155.420000
362.535950	154.560000
362.629456	154.500000
362.722931	154.640000
362.816406	154.560000
362.909882	154.960000
363.003387	154.760000
363.096863	155.120000
363.190338	155.480000
363.283875	155.240000
363.377319	154.860000
363.470825	155.460000
363.564301	154.780000
363.657806	154.680000
363.751282	154.460000
363.844788	155.300000
363.938232	154.820000
364.031769	155.680000
364.125214	155.920000
364.218750	156.800000
364.312225	155.240000
364.405731	155.380000
364.499207	154.640000
364.592712	154.100000
364.686188	153.500000
364.779694	154.060000
364.873169	154.200000
364.966675	154.400000
365.060150	154.340000
365.153656	154.760000
365.247131	155.000000
365.340637	155.300000
365.434143	155.780000
365.527618	156.320000
365.621155	155.140000
365.714600	154.800000
365.808136	154.740000
365.901611	153.660000
365.995117	153.140000
366.088593	153.660000
366.182129	153.600000
366.275604	153.420000
366.369110	153.660000
366.462585	154.000000
366.556122	154.720000
366.649567	154.980000
366.743103	155.100000
366.836609	155.000000
366.930115	155.240000
367.023590	154.760000
367.117096	154.640000
367.210602	154.340000
367.304108	155.300000
367.397614	155.720000
367.491119	156.000000
367.584595	155.940000
367.678101	156.580000
367.771606	155.960000
367.865112	155.480000
367.958649	155.040000
368.052124	155.100000
368.145660	154.600000
368.239136	155.340000
368.332672	155.200000
368.426147	155.340000
368.519684	155.240000
368.613159	155.520000
368.706696	154.700000
368.800171	154.680000
368.893707	154.420000
368.987183	154.440000
369.080719	154.200000
369.174225	154.060000
369.267731	154.160000
369.361237	154.260000
369.454742	154.360000
369.548248	154.880000
369.641754	154.760000
369.735260	154.480000
369.828766	153.880000
369.922272	154.280000
370.015808	153.540000
370.109314	153.840000
370.202820	153.460000
370.296356	154.860000
370.389832	154.300000
370.483368	154.540000
370.576874	154.140000
370.670410	154.720000
370.763885	153.360000
370.857422	153.700000
370.950928	153.380000
371.044464	154.680000
371.137939	154.840000
371.231476	155.480000
371.324982	155.780000
371.418518	156.020000
371.512024	155.360000
371.605560	154.940000
371.699066	154.900000
371.792572	154.200000
371.886108	154.360000
371.979614	154.000000
372.073120	154.380000
372.166656	154.420000
372.260162	154.800000
372.353668	154.380000
372.447205	154.180000
372.540710	154.220000
372.634277	153.940000
372.727753	154.240000
372.821320	154.420000
372.914795	154.440000
373.008362	154.160000
373.101837	154.660000
373.195404	154.100000
373.288879	154.160000
373.382446	155.300000
373.475922	155.480000
373.569489	155.860000
373.662964	156.360000
373.756531	156.500000
373.850037	156.100000
373.943573	155.900000
374.037109	154.760000
374.130615	154.740000
374.224152	154.680000
374.317657	154.360000
374.411194	155.320000
374.504730	155.540000
374.598236	155.260000
374.691772	155.060000
374.785309	155.300000
374.878815	154.020000
374.972351	154.420000
375.065887	154.300000
375.159454	155.120000
375.252930	154.700000
375.346497	155.320000
375.440002	155.760000
375.533569	155.780000
375.627045	154.660000
375.720612	154.960000
375.814117	155.280000
375.907684	154.560000
376.001160	154.320000
376.094727	154.320000
376.188232	154.860000
376.281799	154.440000
376.375336	154.480000
376.468872	155.100000
376.562408	155.400000
376.655914	154.840000
376.749451	154.900000
376.842987	155.300000
376.936523	154.800000
377.030060	154.860000
377.123596	155.180000
377.217133	154.740000
377.310669	154.900000
377.404205	155.320000
377.497772	155.900000
377.591278	155.640000
377.684845	156.700000
377.778351	156.700000
377.871918	156.500000
377.965424	155.660000
378.058990	155.380000
378.152496	154.940000
378.246063	154.800000
378.339569	155.160000
378.433136	155.080000
378.526642	155.220000
378.620209	154.960000
378.713745	154.660000
378.807312	154.880000
378.900848	155.060000
378.994385	155.420000
379.087921	154.840000
379.181458	155.300000
379.274994	154.280000
379.368530	154.060000
379.462097	153.920000
379.555634	154.760000
379.649170	153.960000
379.742706	154.100000
379.836273	154.360000
379.929810	154.000000
380.023376	153.300000
380.116882	153.220000
380.210449	153.380000
380.303986	153.480000
380.397552	153.240000
380.491058	153.540000
380.584656	153.720000
380.678162	154.140000
380.771729	154.100000
380.865265	155.040000
380.958832	155.340000
381.052368	155.560000
381.145935	155.580000
381.239471	155.980000
381.333008	155.660000
381.426575	155.520000
381.520111	156.080000
381.613647	155.960000
381.707214	155.320000
381.800751	154.560000
381.894318	154.880000
381.987854	154.180000
382.081421	154.040000
382.174988	154.560000
382.268524	154.760000
382.362091	154.560000
382.455627	155.360000
382.549194	155.040000
382.642731	154.320000
382.736298	154.420000
382.829834	154.180000
382.923401	154.760000
383.016937	155.120000
383.110504	155.580000
383.204041	155.860000
383.297607	156.420000
383.391174	155.260000
383.484741	156.120000
383.578278	155.880000
383.671844	155.500000
383.765411	154.700000
383.858948	154.960000
383.952515	154.060000
384.046051	154.540000
384.139618	154.900000
384.233185	155.260000
384.326721	155.120000
384.420288	155.740000
384.513855	155.680000
384.607422	155.840000
384.700989	155.960000
384.794525	155.720000
384.888123	155.700000
384.981659	155.820000
385.075226	155.300000
385.168762	154.920000
385.262360	155.120000
385.355896	153.820000
385.449463	153.700000
385.542999	153.900000
385.636597	154.940000
385.730164	155.060000
385.823730	155.060000
385.917267	154.340000
386.010834	154.720000
386.104401	154.280000
386.197968	154.420000
386.291534	155.060000
386.385101	155.620000
386.478668	155.780000
386.572235	155.640000
386.665802	155.100000
386.759338	154.900000
386.852905	154.640000
386.946472	154.080000
387.040070	154.020000
387.133606	154.120000
387.227203	154.060000
387.320740	154.500000
387.414337	154.320000
387.507874	154.320000
387.601471	154.420000
387.695007	154.300000
387.788605	153.880000
387.882141	154.280000
387.975739	154.060000
388.069275	154.160000
388.162872	154.620000
388.256439	154.580000
388.350037	153.960000
388.443604	153.800000
388.537170	153.640000
388.630737	153.920000
388.724304	154.220000
388.817871	154.600000
388.911438	154.800000
389.005005	155.060000
389.098602	155.220000
389.192169	154.960000
389.285736	155.480000
389.379333	155.220000
389.472870	154.720000
389.566467	154.320000
389.660034	154.560000
389.753632	153.760000
389.847168	154.280000
389.940765	154.540000
390.034332	154.900000
390.127930	154.340000
390.221466	154.400000
390.315063	154.060000
390.408630	153.120000
390.502228	152.140000
390.595795	152.620000
390.689362	152.900000
390.782959	153.300000
390.876526	154.460000
390.970093	154.640000
391.063690	155.040000
391.157257	155.260000
391.250824	155.380000
391.344421	154.880000
391.437988	155.660000
391.531555	155.320000
391.625153	155.020000
391.718750	154.800000
391.812317	155.000000
391.905914	154.300000
391.999481	154.460000
392.093079	154.800000
392.186615	155.060000
392.280243	154.900000
392.373779	154.980000
392.467407	155.320000
392.560944	154.780000
392.654572	154.240000
392.748108	154.380000
392.841736	154.640000
392.935303	154.400000
393.028900	154.600000
393.122467	154.760000
393.216064	154.540000
393.309631	154.020000
393.403229	153.440000
393.496796	153.520000
393.590393	153.100000
393.683990	153.460000
393.777557	154.120000
393.871155	154.500000
393.964722	155.000000
394.058350	155.240000
394.151917	155.140000
394.245514	154.640000
394.339081	154.840000
394.432678	154.720000
394.526245	154.580000
394.619873	154.100000
394.713409	154.460000
394.807037	154.220000
394.900604	154.180000
394.994202	154.240000
395.087769	154.580000
395.181396	154.360000
395.274994	155.080000
395.368561	154.560000
395.462158	155.140000
395.555756	154.980000
395.649353	155.380000
395.742920	154.680000
395.836517	155.520000
395.930115	154.460000
396.023712	154.700000
396.117279	154.740000
396.210876	154.480000
396.304474	154.120000
396.398071	154.980000
396.491669	155.340000
396.585266	154.820000
396.678833	154.400000
396.772461	154.620000
396.866028	154.400000
396.959656	154.160000
397.053223	154.500000
397.146851	154.600000
397.240417	154.320000
397.334015	154.700000
397.427582	154.300000
397.521210	154.200000
397.614807	154.800000
397.708405	154.900000
397.802002	154.560000
397.895599	155.340000
397.989197	155.420000
398.082794	155.500000
398.176392	155.580000
398.269989	156.020000
398.363586	156.260000
398.457184	157.300000
398.550781	157.840000
398.644379	157.960000
398.737976	158.480000
398.831573	159.920000
398.925201	161.540000
399.018768	165.740000
399.112396	172.960000
399.205963	184.280000
399.299591	203.100000
399.393158	235.640000
399.486786	296.480000
399.580353	406.220000
399.673981	585.080000
399.767578	838.980000
399.861206	1136.300000
399.954773	1413.540000
400.048401	1589.980000
400.141998	1619.420000
400.235596	1489.700000
400.329193	1246.060000
400.422791	956.060000
400.516418	691.260000
400.610016	486.880000
400.703613	352.780000
400.797211	269.780000
400.890808	221.420000
400.984436	195.920000
401.078033	182.380000
401.171631	172.940000
401.265259	168.340000
401.358826	165.380000
401.452484	163.080000
401.546051	161.580000
401.639679	160.800000
401.733246	160.040000
401.826904	158.840000
401.920471	157.260000
402.014099	156.580000
402.107697	156.200000
402.201324	156.100000
402.294891	156.240000
402.388550	157.080000
402.482147	156.900000
402.575745	156.660000
402.669373	155.960000
402.762970	155.640000
402.856567	155.020000
402.950195	155.180000
403.043793	155.100000
403.137390	155.820000
403.231018	155.040000
403.324615	156.120000
403.418243	155.340000
403.511841	155.940000
403.605469	155.480000
403.699066	156.280000
403.792694	155.700000
403.886292	156.240000
403.979919	155.740000
404.073517	155.500000
404.167145	155.640000
404.260712	155.540000
404.354370	155.160000
404.447937	155.180000
404.541595	155.360000
404.635162	155.640000
404.728821	155.940000
404.822418	155.480000
404.916046	155.400000
405.009644	155.660000
405.103271	155.880000
405.196899	155.260000
405.290497	155.860000
405.384125	156.040000
405.477722	155.440000
405.571350	154.280000
405.664948	154.760000
405.758575	154.720000
405.852203	154.260000
405.945801	154.700000
406.039429	154.920000
406.133057	154.520000
406.226654	154.320000
406.320312	154.560000
406.413879	154.300000
406.507538	154.620000
406.601135	154.240000
406.694763	154.920000
406.788361	154.580000
406.882019	154.480000
406.975586	154.820000
407.069244	155.480000
407.162872	155.060000
407.256470	155.140000
407.350098	155.060000
407.443726	154.560000
407.537323	153.940000
407.630951	154.140000
407.724579	153.860000
407.818207	154.300000
407.911804	154.000000
408.005432	154.480000
408.099060	154.580000
408.192688	155.180000
408.286285	155.000000
408.379913	155.040000
408.473572	155.120000
408.567169	154.400000
408.660828	154.340000
408.754395	154.160000
408.848053	154.160000
408.941650	154.120000
409.035309	153.840000
409.128906	153.680000
409.222565	153.960000
409.316132	154.020000
409.409790	153.940000
409.503387	154.420000
409.597046	154.660000
409.690674	154.520000
409.784302	154.700000
409.877930	154.520000
409.971558	154.760000
410.065186	154.360000
410.158783	154.340000
410.252411	154.300000
410.346039	154.760000
410.439667	154.620000
410.533295	155.020000
410.626923	155.620000
410.720551	155.360000
410.814209	155.660000
410.907806	156.020000
411.001465	155.520000
411.095062	155.360000
411.188721	155.820000
411.282318	155.120000
411.375977	154.340000
411.469574	154.620000
411.563232	154.320000
411.656830	154.020000
411.750488	153.760000
411.844086	154.000000
411.937744	154.100000
412.031372	153.960000
412.125000	153.940000
412.218628	154.200000
412.312256	154.920000
412.405884	155.600000
412.499512	155.500000
412.593170	156.080000
412.686798	156.360000
412.780426	155.520000
412.874054	155.260000
412.967682	155.180000
413.061310	155.500000
413.154968	155.540000
413.248566	155.980000
413.342224	155.400000
413.435852	155.700000
413.529510	154.980000
413.623108	154.280000
413.716766	154.060000
413.810364	154.700000
413.904022	154.200000
413.997650	153.940000
414.091309	154.820000
414.184906	154.760000
414.278564	154.460000
414.372192	155.100000
414.465851	155.620000
414.559479	155.200000
414.653107	156.040000
414.746735	155.580000
414.840393	155.260000
414.934021	155.080000
415.027649	154.680000
415.121277	154.080000
415.214935	154.480000
415.308563	154.540000
415.402191	154.020000
415.495850	154.220000
415.589478	153.880000
415.683136	153.700000
415.776733	154.200000
415.870422	154.980000
415.964020	154.700000
416.057678	154.980000
416.151306	154.900000
416.244965	154.480000
416.338562	154.160000
416.432251	154.840000
416.525848	155.420000
416.619507	156.020000
416.713165	156.200000
416.806793	155.980000
416.900421	155.840000
416.994080	155.280000
417.087708	154.720000
417.181366	154.260000
417.274994	154.400000
417.368622	154.700000
417.462280	155.220000
417.555908	155.380000
417.649567	155.460000
417.743195	155.660000
417.836853	155.320000
417.930481	155.100000
418.024170	155.260000
418.117767	155.660000
418.211426	155.680000
418.305054	155.740000
418.398712	155.280000
418.492340	155.340000
418.585999	155.400000
418.679626	155.620000
418.773285	155.580000
418.866913	155.900000
418.960571	155.920000
419.054230	156.100000
419.147858	155.840000
419.241516	155.920000
419.335144	155.560000
419.428802	155.160000
419.522461	154.480000
419.616089	154.080000
419.709747	154.360000
419.803375	154.620000
419.897034	154.540000
419.990662	154.760000
420.084320	155.100000
420.177979	155.080000
420.271606	155.420000
420.365295	155.900000
420.458893	156.000000
420.552582	156.120000
420.646210	155.900000
420.739868	155.440000
420.833496	155.060000
420.927155	154.740000
421.020782	154.440000
421.114471	153.880000
421.208069	154.020000
421.301758	154.260000
421.395386	154.360000
421.489044	154.160000
421.582703	154.400000
421.676361	154.780000
421.769989	154.160000
421.863647	154.600000
421.957306	154.980000
422.050934	155.420000
422.144592	155.440000
422.238251	155.480000
422.331909	155.140000
422.425537	154.860000
422.519196	154.600000
422.612854	153.960000
422.706543	154.020000
422.800140	153.920000
422.893829	153.580000
422.987457	153.200000
423.081146	153.760000
423.174744	154.280000
423.268433	154.380000
423.362061	154.660000
423.455750	154.640000
423.549347	154.240000
423.643036	153.680000
423.736664	154.180000
423.830353	154.400000
423.924011	155.200000
424.017639	154.780000
424.111298	154.840000
424.204956	154.560000
424.298615	154.520000
424.392273	153.820000
424.485931	154.300000
424.579559	154.720000
424.673218	154.600000
424.766876	154.600000
424.860535	154.280000
424.954193	154.060000
425.047882	154.120000
425.141510	154.100000
425.235199	154.000000
425.328796	154.260000
425.422485	154.020000
425.516113	153.480000
425.609802	153.360000
425.703430	153.780000
425.797119	153.780000
425.890747	154.100000
425.984436	154.540000
426.078064	154.620000
426.171753	154.460000
426.265411	154.320000
426.359070	154.660000
426.452728	154.500000
426.546356	154.720000
426.640015	154.580000
426.733673	154.800000
426.827332	154.060000
426.920990	155.000000
427.014648	154.580000
427.108307	154.740000
427.201965	155.360000
427.295624	155.960000
427.389282	155.060000
427.482941	155.320000
427.576630	155.400000
427.670258	154.740000
427.763947	154.400000
427.857574	154.420000
427.951263	154.480000
428.044922	154.120000
428.138611	154.240000
428.232239	154.880000
428.325928	155.360000
428.419556	155.900000
428.513245	155.720000
428.606903	155.920000
428.700562	155.460000
428.794220	154.740000
428.887878	153.980000
428.981537	154.640000
429.075195	154.660000
429.168854	154.980000
429.262512	155.120000
429.356201	155.600000
429.449860	155.440000
429.543518	155.540000
429.637177	155.880000
429.730835	156.260000
429.824493	155.840000
429.918182	155.900000
430.011810	155.540000
430.105530	154.360000
430.199158	154.480000
430.292847	154.680000
430.386475	154.340000
430.480164	154.200000
430.573792	154.440000
430.667511	154.280000
430.761139	154.200000
430.854828	154.840000
430.948456	155.060000
431.042145	155.660000
431.135834	155.260000
431.229492	155.180000
431.323151	155.080000
431.416809	155.120000
431.510468	155.140000
431.604156	155.140000
431.697815	155.560000
431.791473	154.920000
431.885132	154.620000
431.978821	154.900000
432.072479	155.560000
432.166138	155.420000
432.259827	155.620000
432.353485	155.780000
432.447174	155.420000
432.540802	154.680000
432.634491	155.140000
432.728149	155.660000
432.821838	156.540000
432.915466	156.320000
433.009186	156.820000
433.102814	155.940000
433.196503	155.320000
433.290131	154.840000
433.383850	155.300000
433.477509	155.280000
433.571167	156.160000
433.664856	157.040000
433.758514	157.260000
433.852173	157.140000
433.945862	156.900000
434.039520	156.460000
434.133179	155.660000
434.226868	155.280000
434.320526	154.400000
434.414185	155.060000
434.507874	154.580000
434.601562	154.940000
434.695221	154.640000
434.788910	155.380000
434.882538	155.180000
434.976257	155.120000
435.069885	154.900000
435.163574	155.700000
435.257233	155.300000
435.350922	155.320000
435.444580	155.260000
435.538269	155.140000
435.631897	155.020000
435.725616	155.800000
435.819275	156.180000
435.912964	156.920000
436.006622	157.400000
436.100311	157.340000
436.193970	156.440000
436.287628	155.700000
436.381317	155.320000
436.474976	154.740000
436.568665	154.040000
436.662323	154.360000
436.756012	154.320000
436.849670	154.320000
436.943390	154.220000
437.037018	154.240000
437.130737	154.440000
437.224365	154.520000
437.318085	154.700000
437.411713	155.020000
437.505432	155.660000
437.599060	156.100000
437.692780	156.780000
437.786407	156.640000
437.880127	156.520000
437.973755	156.040000
438.067474	155.520000
438.161133	155.140000
438.254822	155.720000
438.348480	155.400000
438.442169	156.200000
438.535828	156.200000
438.629517	155.740000
438.723175	154.720000
438.816864	155.880000
438.910553	155.040000
439.004211	154.860000
439.097900	154.600000
439.191559	155.260000
439.285248	154.080000
439.378906	154.440000
439.472626	154.380000
439.566284	154.700000
439.659973	154.320000
439.753632	154.320000
439.847321	154.520000
439.940979	154.740000
440.034698	154.840000
440.128326	154.440000
440.222046	154.640000
440.315674	153.900000
440.409393	154.120000
440.503082	153.800000
440.596741	154.440000
440.690430	154.580000
440.784088	154.920000
440.877777	154.180000
440.971466	154.500000
441.065125	154.100000
441.158813	153.820000
441.252502	153.760000
441.346161	154.080000
441.439850	154.140000
441.533539	153.760000
441.627197	154.020000
441.720886	153.660000
441.814606	154.240000
441.908234	154.460000
442.001953	155.060000
442.095612	154.920000
442.189301	155.640000
442.282959	155.420000
442.376678	154.540000
442.470306	155.100000
442.564026	155.220000
442.657684	154.840000
442.751404	154.740000
442.845032	155.740000
442.938751	154.940000
443.032440	155.120000
443.126099	154.900000
443.219788	155.260000
443.313477	154.680000
443.407166	155.120000
443.500824	154.940000
443.594513	155.340000
443.688202	155.100000
443.781891	154.840000
443.875549	154.440000
443.969238	154.640000
444.062927	154.420000
444.156647	154.200000
444.250275	154.860000
444.343994	155.160000
444.437653	155.360000
444.531372	155.500000
444.625031	155.300000
444.718719	154.600000
444.812378	154.380000
444.906097	153.800000
444.999756	153.180000
445.093445	153.320000
445.187103	153.700000
445.280823	154.400000
445.374512	154.040000
445.468201	154.380000
445.561859	154.100000
445.655548	154.000000
445.749237	153.100000
445.842926	153.400000
445.936615	153.720000
446.030304	153.760000
446.123962	154.120000
446.217651	154.180000
446.311340	154.580000
446.405029	154.160000
446.498749	153.880000
446.592407	153.440000
446.686096	153.580000
446.779755	153.120000
446.873474	153.620000
446.967133	154.160000
447.060852	153.860000
447.154510	154.160000
447.248230	154.380000
447.341858	154.400000
447.435577	154.000000
447.529236	154.220000
447.622955	153.680000
447.716644	153.820000
447.810333	153.760000
447.904022	154.360000
447.997711	154.260000
448.091400	154.760000
448.185059	154.580000
448.278748	154.580000
448.372437	154.300000
448.466125	154.660000
448.559814	154.540000
448.653503	154.940000
448.747192	155.220000
448.840912	155.700000
448.934570	155.740000
449.028290	156.280000
449.121948	155.800000
449.215637	155.040000
449.309296	154.400000
449.403015	154.420000
449.496674	154.020000
449.590393	153.980000
449.684052	154.060000
449.777771	154.760000
449.871429	153.960000
449.965149	153.600000
450.058838	154.140000
450.152527	154.660000
450.246216	154.260000
450.339905	154.920000
450.433594	155.160000
450.527283	155.920000
450.620972	155.900000
450.714661	155.840000
450.808350	155.980000
450.902039	156.020000
450.995728	155.020000
451.089417	154.240000
451.183105	154.280000
451.276794	154.640000
451.370514	154.020000
451.464172	153.380000
451.557892	153.580000
451.651550	153.680000
451.745270	152.960000
451.838928	152.800000
451.932648	153.680000
452.026306	154.460000
452.120026	154.180000
452.213684	154.660000
452.307404	155.060000
452.401062	154.980000
452.494781	154.840000
452.588470	155.100000
452.682159	154.620000
452.775848	154.720000
452.869537	153.600000
452.963226	153.040000
453.056915	152.700000
453.150604	152.680000
453.244293	153.340000
453.337982	154.840000
453.431671	155.520000
453.525360	156.120000
453.619049	156.220000
453.712769	155.780000
453.806427	154.560000
453.900146	154.060000
453.993805	153.960000
454.087555	154.380000
454.181213	154.340000
454.274933	154.800000
454.368591	154.820000
454.462311	154.540000
454.555969	154.040000
454.649689	154.800000
454.743347	154.860000
454.837067	155.620000
454.930756	156.320000
455.024445	156.500000
455.118134	155.660000
455.211853	155.920000
455.305542	155.180000
455.399231	154.660000
455.492920	154.620000
455.586609	155.060000
455.680298	155.320000
455.773987	155.160000
455.867676	155.080000
455.961365	155.500000
456.055084	154.960000
456.148773	154.200000
456.242493	154.420000
456.336151	154.360000
456.429871	154.180000
456.523529	154.600000
456.617249	154.480000
456.710907	154.840000
456.804626	154.800000
456.898315	154.380000
456.992035	154.320000
457.085693	154.380000
457.179413	153.440000
457.273102	154.420000
457.366791	154.540000
457.460480	154.700000
457.554199	155.520000
457.647888	156.100000
457.741577	155.200000
457.835266	155.400000
457.928955	155.420000
458.022644	155.340000
458.116364	155.400000
458.210052	155.400000
458.303741	155.440000
458.397461	154.780000
458.491119	154.220000
458.584839	154.180000
458.678528	154.000000
458.772247	153.780000
458.865906	153.960000
458.959625	154.840000
459.053284	154.840000
459.147003	154.740000
459.240692	155.520000
459.334412	155.600000
459.428070	155.260000
459.521790	155.060000
459.615479	155.160000
459.709198	155.080000
459.802887	154.620000
459.896576	153.760000
459.990265	154.140000
460.083954	154.360000
460.177673	153.780000
460.271362	154.200000
460.365051	154.380000
460.458740	154.040000
460.552429	153.720000
460.646149	153.860000
460.739838	153.800000
460.833527	154.520000
460.927246	154.480000
461.020905	154.220000
461.114655	153.920000
461.208313	154.140000
461.302032	153.080000
461.395691	153.180000
461.489441	153.800000
461.583099	153.860000
461.676819	153.240000
461.770477	154.100000
461.864197	153.920000
461.957916	153.560000
462.051605	153.280000
462.145294	154.540000
462.238983	153.880000
462.332703	154.480000
462.426392	155.040000
462.520081	155.180000
462.613770	154.440000
462.707489	154.960000
462.801178	154.540000
462.894867	153.960000
462.988556	154.440000
463.082275	154.580000
463.175964	154.180000
463.269684	154.400000
463.363342	154.540000
463.457092	153.520000
463.550751	153.680000
463.644470	154.060000
463.738129	153.820000
463.831879	154.020000
463.925537	155.100000
464.019257	155.100000
464.112946	154.960000
464.206665	154.700000
464.300323	154.260000
464.394043	153.680000
464.487762	153.400000
464.581451	153.700000
464.675140	153.760000
464.768829	154.220000
464.862549	154.360000
464.956238	154.440000
465.049927	154.220000
465.143646	154.560000
465.237335	154.160000
465.331024	154.740000
465.424713	154.920000
465.518433	155.020000
465.612152	154.620000
465.705811	154.800000
465.799561	154.400000
465.893219	154.260000
465.986938	154.020000
466.080597	153.960000
466.174347	154.520000
466.268005	154.420000
466.361725	154.220000
466.455414	154.360000
466.549133	154.260000
466.642792	154.200000
466.736542	153.980000
466.830231	154.140000
466.923920	154.180000
467.017609	154.400000
467.111328	153.980000
467.205017	154.040000
467.298706	153.920000
467.392426	154.020000
467.486115	154.520000
467.579803	154.180000
467.673523	154.600000
467.767212	154.920000
467.860901	154.680000
467.954651	154.680000
468.048309	155.200000
468.142029	155.140000
468.235718	155.120000
468.329437	154.960000
468.423096	154.800000
468.516846	154.560000
468.610504	154.120000
468.704224	153.700000
468.797913	153.700000
468.891632	153.800000
468.985291	154.000000
469.079010	154.460000
469.172729	154.280000
469.266418	154.980000
469.360107	154.860000
469.453827	154.900000
469.547516	154.520000
469.641205	154.840000
469.734924	154.860000
469.828613	154.920000
469.922302	154.680000
470.016022	154.840000
470.109711	154.680000
470.203430	153.840000
470.297150	152.960000
470.390808	153.100000
470.484558	152.920000
470.578217	153.340000
470.671936	153.780000
470.765625	154.820000
470.859344	154.540000
470.953003	155.120000
471.046753	154.800000
471.140411	154.140000
471.234131	154.260000
471.327820	154.940000
471.421539	154.420000
471.515228	153.980000
471.608948	154.420000
471.702637	153.680000
471.796326	153.100000
471.890045	153.840000
471.983734	154.220000
472.077423	154.040000
472.171143	154.540000
472.264832	154.380000
472.358521	153.840000
472.452240	153.600000
472.545929	154.560000
472.639648	154.560000
472.733337	155.040000
472.827057	155.140000
472.920746	155.180000
473.014465	155.160000
473.108124	155.200000
473.201874	155.220000
473.295532	154.960000
473.389252	155.940000
473.482941	155.760000
473.576660	155.440000
473.670319	155.120000
473.764069	155.460000
473.857727	155.280000
473.951477	155.320000
474.045166	155.900000
474.138855	156.140000
474.232574	156.040000
474.326263	155.820000
474.419952	156.160000
474.513672	155.980000
474.607361	155.560000
474.701050	155.780000
474.794769	155.740000
474.888458	155.360000
474.982178	155.460000
475.075867	155.580000
475.169586	155.340000
475.263275	155.280000
475.356995	155.140000
475.450653	154.460000
475.544403	154.380000
475.638062	154.920000
475.731812	154.420000
475.825470	154.000000
475.919189	154.400000
476.012878	154.480000
476.106598	153.880000
476.200256	154.240000
476.294006	154.540000
476.387695	154.560000
476.481384	154.460000
476.575104	154.660000
476.668793	154.580000
476.762512	154.320000
476.856201	154.860000
476.949890	154.660000
477.043610	153.980000
477.137299	153.980000
477.230988	154.300000
477.324707	153.920000
477.418396	154.720000
477.512146	154.820000
477.605804	154.820000
477.699524	154.860000
477.793213	154.520000
477.886932	154.100000
477.980591	154.080000
478.074341	153.920000
478.167999	153.280000
478.261749	153.400000
478.355408	153.140000
478.449127	153.760000
478.542816	154.820000
478.636536	156.020000
478.730225	156.100000
478.823944	156.660000
478.917633	156.360000
479.011322	155.860000
479.105042	155.300000
479.198730	155.520000
479.292450	155.260000
479.386139	155.480000
479.479828	155.500000
479.573547	155.680000
479.667267	155.420000
479.760925	155.180000
479.854675	155.420000
479.948334	155.540000
480.042084	155.000000
480.135742	155.220000
480.229462	154.780000
480.323151	154.820000
480.416870	154.140000
480.510529	154.340000
480.604279	153.620000
480.697937	154.520000
480.791656	153.460000
480.885345	153.420000
480.979065	153.480000
481.072754	154.060000
481.166473	154.460000
481.260132	154.800000
481.353882	154.940000
481.447540	154.840000
481.541260	154.820000
481.635010	153.920000
481.728668	154.060000
481.822388	153.740000
481.916077	153.540000
482.009796	153.160000
482.103485	153.900000
482.197205	154.060000
482.290863	154.540000
482.384613	154.420000
482.478271	154.440000
482.571991	153.800000
482.665680	153.660000
482.759399	154.320000
482.853058	154.860000
482.946808	155.020000
483.040466	155.140000
483.134216	155.060000
483.227875	154.520000
483.321594	154.720000
483.415283	154.660000
483.509003	154.500000
483.602661	154.420000
483.696411	154.660000
483.790070	154.360000
483.883789	154.440000
483.977478	154.880000
484.071198	154.800000
484.164917	154.320000
484.258606	153.900000
484.352325	154.120000
484.445984	154.020000
484.539734	154.140000
484.633392	153.700000
484.727142	154.100000
484.820801	153.860000
484.914520	153.600000
485.008209	153.900000
485.101929	154.560000
485.195587	154.360000
485.289337	154.440000
485.382996	154.680000
485.476715	154.560000
485.570404	155.000000
485.664124	154.920000
485.757782	155.180000
485.851532	154.700000
485.945190	154.540000
486.038910	154.260000
486.132599	154.780000
486.226318	154.080000
486.319977	154.100000
486.413727	154.620000
486.507446	153.900000
486.601105	153.220000
486.694855	153.140000
486.788513	153.320000
486.882233	153.360000
486.975922	153.860000
487.069641	153.680000
487.163300	153.780000
487.257050	154.860000
487.350708	153.980000
487.444427	153.520000
487.538116	153.980000
487.631836	153.980000
487.725494	153.240000
487.819214	153.700000
487.912903	153.820000
488.006622	154.300000
488.100281	154.880000
488.194031	154.680000
488.287689	155.100000
488.381409	155.880000
488.475098	155.500000
488.568817	155.560000
488.662476	155.160000
488.756226	154.700000
488.849945	153.440000
488.943604	153.600000
489.037354	153.800000
489.131012	154.160000
489.224731	153.980000
489.318390	154.420000
489.412140	154.280000
489.505798	153.860000
489.599518	153.500000
489.693207	153.780000
489.786926	153.880000
489.880585	153.680000
489.974335	153.840000
490.067993	155.080000
490.161713	155.340000
490.255371	155.800000
490.349121	155.980000
490.442780	155.620000
490.536499	154.740000
490.630188	154.440000
490.723907	153.940000
490.817566	154.100000
490.911285	154.080000
491.004974	153.940000
491.098694	153.460000
491.192413	154.140000
491.286102	153.760000
491.379822	154.020000
491.473480	154.240000
491.567200	154.620000
491.660889	153.780000
491.754608	153.920000
491.848267	153.940000
491.941986	153.800000
492.035675	153.900000
492.129395	154.620000
492.223053	154.600000
492.316772	154.520000
492.410461	154.420000
492.504181	154.360000
492.597839	153.900000
492.691559	154.000000
492.785248	154.100000
492.878967	154.480000
492.972626	154.340000
493.066345	154.380000
493.160034	154.060000
493.253754	153.960000
493.347412	153.360000
493.441132	153.580000
493.534882	154.300000
493.628540	154.640000
493.722260	154.900000
493.815918	155.560000
493.909668	155.900000
494.003326	155.900000
494.097046	155.800000
494.190704	155.500000
494.284454	155.240000
494.378113	155.180000
494.471832	154.520000
494.565491	154.320000
494.659210	154.580000
494.752899	154.660000
494.846619	154.320000
494.940277	154.660000
495.033997	154.560000
495.127686	154.080000
495.221405	153.860000
495.315063	153.920000
495.408783	153.740000
495.502441	154.060000
495.596191	153.940000
495.689850	153.720000
495.783569	154.120000
495.877228	154.160000
495.970947	153.920000
496.064697	154.340000
496.158356	155.040000
496.252075	154.680000
496.345734	154.360000
496.439453	155.300000
496.533142	155.380000
496.626862	155.600000
496.720520	155.720000
496.814240	155.980000
496.907898	155.440000
497.001617	155.660000
497.095306	154.740000
497.189026	154.500000
497.282684	154.440000
497.376404	154.540000
497.470062	154.060000
497.563782	154.240000
497.657471	154.180000
497.751190	153.840000
497.844849	153.460000
497.938568	153.580000
498.032227	153.720000
498.125946	153.740000
498.219635	153.700000
498.313354	153.780000
498.407074	153.480000
498.500732	153.800000
498.594452	154.240000
498.688110	154.220000
498.781830	153.900000
498.875519	153.980000
498.969238	153.400000
499.062897	152.840000
499.156616	153.480000
499.250275	153.820000
499.343994	153.540000
499.437653	153.660000
499.531372	153.920000
499.625061	154.040000
499.718781	154.120000
499.812439	154.880000
499.906158	154.760000
499.999817	154.540000
500.093536	153.980000
500.187195	154.120000
500.280914	153.900000
500.374573	154.320000
500.468323	154.300000
500.561981	154.780000
500.655701	154.300000
500.749420	154.100000
500.843079	154.160000
500.936798	154.460000
501.030457	154.580000
501.124176	155.020000
501.217834	155.000000
501.311554	154.980000
501.405212	154.660000
501.498962	153.880000
501.592621	153.540000
501.686340	153.920000
501.779999	153.700000
501.873718	153.940000
501.967377	154.260000
502.061096	154.700000
502.154755	153.860000
502.248474	154.060000
502.342133	154.240000
502.435852	154.260000
502.529510	154.740000
502.623230	155.740000
502.716888	155.120000
502.810608	154.880000
502.904266	155.160000
502.997986	154.460000
503.091705	153.720000
503.185364	153.820000
503.279083	153.920000
503.372772	153.680000
503.466492	153.140000
503.560150	153.520000
503.653870	154.060000
503.747528	154.080000
503.841248	154.000000
503.934906	154.500000
504.028625	154.380000
504.122284	154.600000
504.216003	155.100000
504.309662	154.960000
504.403381	155.240000
504.497040	155.220000
504.590759	154.500000
504.684418	154.380000
504.778137	155.000000
504.871796	155.260000
504.965515	155.040000
505.059174	155.480000
505.152893	154.600000
505.246521	154.120000
505.340240	153.780000
505.433899	154.060000
505.527618	154.080000
505.621338	154.620000
505.714996	154.680000
505.808716	154.420000
505.902374	155.060000
505.996094	155.060000
506.089752	154.660000
506.183472	154.600000
506.277130	154.680000
506.370850	154.220000
506.464508	153.960000
506.558228	154.460000
506.651886	154.280000
506.745605	154.420000
506.839264	154.220000
506.932983	154.300000
507.026611	154.080000
507.120331	154.480000
507.213989	153.800000
507.307709	154.000000
507.401367	154.580000
507.495087	155.680000
507.588745	155.300000
507.682465	156.540000
507.776123	156.080000
507.869843	155.580000
507.963531	154.760000
508.057190	155.320000
508.150909	154.360000
508.244568	154.880000
508.338287	154.760000
508.431946	154.540000
508.525665	153.900000
508.619324	153.800000
508.713013	153.740000
508.806671	153.920000
508.900391	154.860000
508.994049	155.280000
509.087769	155.400000
509.181427	155.320000
509.275146	155.040000
509.368774	153.720000
509.462494	153.440000
509.556152	153.320000
509.649872	153.820000
509.743530	153.960000
509.837250	154.600000
509.930878	154.900000
510.024597	155.040000
510.118256	154.500000
510.211975	154.600000
510.305695	154.220000
510.399353	154.200000
510.493042	154.680000
510.586700	155.220000
510.680420	155.700000
510.774078	155.520000
510.867798	155.440000
510.961426	154.780000
511.055145	154.000000
511.148804	153.380000
511.242523	154.360000
511.336151	154.640000
511.429871	154.940000
511.523529	155.140000
511.617249	154.980000
511.710876	154.340000
511.804596	153.760000
511.898254	153.920000
511.991974	154.260000
512.085632	154.160000
512.179321	154.240000
512.272949	154.860000
512.366699	155.360000
512.460327	155.040000
512.554077	156.140000
512.647766	155.920000
512.741394	155.400000
512.835144	155.440000
512.928772	155.120000
513.022461	154.880000
513.116150	154.600000
513.209839	155.180000
513.303467	154.360000
513.397217	154.100000
513.490845	153.540000
513.584595	153.560000
513.678223	153.020000
513.771912	152.480000
513.865601	153.380000
513.959290	153.000000
514.052917	153.180000
514.146667	154.020000
514.240295	155.020000
514.333984	154.980000
514.427673	155.340000
514.521362	156.220000
514.614990	155.280000
514.708740	154.960000
514.802368	154.840000
514.896057	155.100000
514.989746	155.020000
515.083435	155.020000
515.177124	155.340000
515.270752	155.220000
515.364502	154.940000
515.458130	154.840000
515.551819	154.760000
515.645508	154.160000
515.739197	154.180000
515.832825	154.340000
515.926575	153.800000
516.020203	154.300000
516.113892	155.340000
516.207520	155.160000
516.301270	155.120000
516.394897	155.120000
516.488586	155.200000
516.582275	154.680000
516.675964	154.160000
516.769592	154.080000
516.863281	154.940000
516.956970	154.800000
517.050659	154.480000
517.144287	155.040000
517.238037	155.120000
517.331665	154.060000
517.425354	153.840000
517.519043	154.100000
517.612732	153.980000
517.706421	153.720000
517.800049	153.780000
517.893738	153.540000
517.987427	153.380000
518.081116	153.400000
518.174744	153.200000
518.268433	153.680000
518.362122	154.500000
518.455811	154.300000
518.549438	155.240000
518.643127	156.360000
518.736816	155.900000
518.830505	155.060000
518.924133	155.020000
519.017822	154.340000
519.111511	153.760000
519.205200	154.300000
519.298828	154.520000
519.392517	154.080000
519.486206	154.480000
519.579895	154.460000
519.673523	154.240000
519.767212	154.420000
519.860901	155.320000
519.954590	155.000000
520.048279	154.640000
520.141907	154.320000
520.235596	155.240000
520.329224	155.300000
520.422974	155.460000
520.516602	155.640000
520.610291	155.400000
520.703918	154.820000
520.797607	154.380000
520.891296	153.940000
520.984985	154.060000
521.078613	155.100000
521.172302	154.160000
521.265930	154.960000
521.359680	155.740000
521.453308	155.860000
521.546997	155.260000
521.640625	155.880000
521.734314	155.280000
521.827942	154.640000
521.921692	154.680000
522.015320	154.900000
522.109009	154.480000
522.202698	154.480000
522.296326	154.500000
522.390015	154.700000
522.483704	154.800000
522.577393	154.640000
522.671021	154.520000
522.764709	154.120000
522.858337	154.080000
522.952026	153.680000
523.045654	154.860000
523.139404	155.580000
523.233032	155.840000
523.326721	155.560000
523.420349	155.480000
523.514038	154.580000
523.607666	154.680000
523.701355	154.200000
523.795044	154.020000
523.888733	154.560000
523.982361	154.940000
524.076050	154.320000
524.169678	155.180000
524.263367	154.900000
524.356995	154.400000
524.450684	154.240000
524.544373	153.920000
524.638062	153.540000
524.731750	154.120000
524.825378	154.220000
524.919067	153.820000
525.012695	153.980000
525.106384	154.000000
525.200012	154.080000
525.293701	153.780000
525.387329	154.440000
525.481018	154.660000
525.574646	155.060000
525.668396	154.800000
525.762024	155.460000
525.855713	155.600000
525.949341	155.020000
526.043030	154.800000
526.136658	154.560000
526.230347	154.020000
526.323975	153.620000
526.417664	154.080000
526.511292	154.280000
526.604980	154.420000
526.698608	154.600000
526.792297	154.620000
526.885925	154.940000
526.979614	154.920000
527.073303	155.100000
527.166931	154.880000
527.260620	155.040000
527.354309	155.080000
527.447998	154.700000
527.541626	154.300000
527.635315	154.560000
527.728943	154.780000
527.822632	154.700000
527.916260	154.920000
528.009949	155.300000
528.103577	155.120000
528.197266	154.360000
528.290894	154.380000
528.384583	154.320000
528.478210	154.260000
528.571899	154.400000
528.665527	154.860000
528.759216	154.800000
528.852844	155.280000
528.946533	155.220000
529.040161	155.240000
529.133850	155.060000
529.227478	155.360000
529.321167	155.260000
529.414856	155.700000
529.508484	155.940000
529.602173	155.580000
529.695801	155.140000
529.789490	154.840000
529.883057	154.440000
529.976746	154.620000
530.070374	155.280000
530.164062	155.320000
530.257690	155.560000
530.351379	155.880000
530.445007	155.600000
530.538696	154.720000
530.632324	154.960000
530.726013	154.980000
530.819641	154.840000
530.913330	154.940000
531.006958	155.240000
531.100647	155.100000
531.194275	154.640000
531.287964	154.540000
531.381592	154.380000
531.475220	154.540000
531.568848	154.360000
531.662537	154.400000
531.756226	154.780000
531.849854	154.500000
531.943542	154.960000
532.037170	154.300000
532.130859	154.700000
532.224487	154.180000
532.318176	153.980000
532.411804	154.340000
532.505432	155.360000
532.599060	155.020000
532.692749	155.160000
532.786377	155.720000
532.880066	154.700000
532.973694	153.860000
533.067383	153.540000
533.161011	153.380000
533.254639	153.380000
533.348267	153.400000
533.441956	154.040000
533.535583	154.140000
533.629272	154.280000
533.722900	153.500000
533.816589	153.820000
533.910156	154.040000
534.003845	153.880000
534.097534	154.460000
534.191162	155.460000
534.284851	155.720000
534.378479	155.260000
534.472107	155.620000
534.565735	154.720000
534.659424	154.660000
534.753052	154.540000
534.846741	154.400000
534.940369	155.280000
535.033997	155.340000
535.127625	155.200000
535.221313	155.720000
535.314941	155.880000
535.408630	154.820000
535.502197	155.400000
535.595886	155.020000
535.689514	154.540000
535.783203	154.760000
535.876831	155.320000
535.970459	155.240000
536.064087	155.260000
536.157776	155.380000
536.251404	155.400000
536.345093	155.100000
536.438721	154.880000
536.532349	155.200000
536.626038	154.760000
536.719666	154.920000
536.813293	154.700000
536.906921	154.580000
537.000610	154.960000
537.094238	155.160000
537.187866	154.920000
537.281494	154.920000
537.375183	155.160000
537.468811	154.680000
537.562439	154.740000
537.656067	154.820000
537.749756	154.960000
537.843384	155.360000
537.937012	155.460000
538.030640	155.200000
538.124329	154.860000
538.217896	155.120000
538.311584	155.160000
538.405212	155.080000
538.498901	155.560000
538.592468	156.380000
538.686157	155.860000
538.779785	155.060000
538.873413	154.860000
538.967102	154.200000
539.060730	153.480000
539.154358	153.980000
539.247986	154.180000
539.341675	154.380000
539.435242	154.580000
539.528931	154.880000
539.622559	154.620000
539.716187	155.160000
539.809814	155.040000
539.903503	155.100000
539.997070	154.920000
540.090759	154.920000
540.184387	154.640000
540.278015	155.020000
540.371643	155.260000
540.465332	155.340000
540.558899	155.340000
540.652588	155.320000
540.746216	155.220000
540.839844	155.320000
540.933472	155.240000
541.027100	155.400000
541.120728	155.300000
541.214417	155.200000
541.308044	155.340000
541.401672	155.340000
541.495300	155.060000
541.588928	155.280000
541.682617	155.020000
541.776184	154.620000
541.869873	154.860000
541.963440	154.780000
542.057129	154.480000
542.150757	154.800000
542.244385	154.360000
542.338013	153.880000
542.431641	153.760000
542.525269	153.860000
542.618958	154.380000
542.712524	155.040000
542.806213	154.840000
542.899780	155.280000
542.993469	155.020000
543.087036	154.200000
543.180725	153.520000
543.274292	154.180000
543.367981	154.220000
543.461548	154.680000
543.555237	154.880000
543.648926	155.500000
543.742493	155.760000
543.836182	155.960000
543.929749	155.620000
544.023437	155.480000
544.117004	155.560000
544.210693	155.220000
544.304260	154.860000
544.397949	154.880000
544.491516	155.340000
544.585205	155.100000
544.678772	154.780000
544.772461	155.400000
544.866028	155.260000
544.959717	155.100000
545.053284	154.780000
545.146973	154.920000
545.240540	154.620000
545.334229	155.220000
545.427795	155.300000
545.521423	155.660000
545.615051	155.720000
545.708679	156.080000
545.802307	155.900000
545.895935	156.100000
545.989624	156.840000
546.083191	156.760000
546.176880	156.320000
546.270447	155.520000
546.364136	155.920000
546.457703	155.280000
546.551331	155.320000
546.644958	155.500000
546.738586	156.420000
546.832214	155.580000
546.925842	155.360000
547.019409	155.680000
547.113098	155.180000
547.206665	154.640000
547.300354	154.640000
547.393921	154.880000
547.487549	154.940000
547.581177	154.700000
547.674805	154.860000
547.768433	154.480000
547.862061	154.720000
547.955627	153.740000
548.049316	154.880000
548.142883	155.100000
548.236572	155.500000
548.330139	155.460000
548.423767	156.100000
548.517456	155.480000
548.611023	155.740000
548.704651	155.480000
548.798279	155.440000
548.891907	156.000000
548.985474	155.780000
549.079163	155.680000
549.172729	155.380000
549.266357	154.760000
549.359985	154.540000
549.453613	154.480000
549.547180	154.140000
549.640869	154.680000
549.734436	154.680000
549.828064	154.720000
549.921631	154.700000
550.015320	154.300000
550.108887	154.840000
550.202515	155.060000
550.296143	154.480000
550.389771	154.720000
550.483337	155.220000
550.576965	154.500000
550.670593	155.080000
550.764221	155.400000
550.857849	155.140000
550.951477	154.580000
551.045105	154.840000
551.138672	154.560000
551.232300	154.020000
551.325928	154.600000
551.419556	155.200000
551.513123	155.160000
551.606750	154.560000
551.700378	155.100000
551.794006	154.680000
551.887573	154.560000
551.981201	154.880000
552.074768	155.140000
552.168457	154.580000
552.262024	155.620000
552.355652	155.540000
552.449219	155.980000
552.542847	156.200000
552.636475	156.120000
552.730103	154.860000
552.823669	154.660000
552.917297	153.740000
553.010864	153.380000
553.104553	153.800000
553.198181	153.360000
553.291748	153.940000
553.385376	154.440000
553.478943	154.780000
553.572571	154.820000
553.666199	155.580000
553.759827	155.220000
553.853394	154.420000
553.947021	154.560000
554.040588	154.500000
554.134216	154.300000
554.227783	154.840000
554.321411	155.840000
554.415039	155.120000
554.508667	155.120000
554.602234	155.640000
554.695862	154.960000
554.789429	154.640000
554.883057	155.220000
554.976624	155.080000
555.070251	154.840000
555.163818	154.640000
555.257507	154.740000
555.351074	154.700000
555.444702	156.040000
555.538330	155.480000
555.631897	156.040000
555.725525	155.920000
555.819092	155.760000
555.912720	154.320000
556.006287	155.060000
556.099915	154.700000
556.193481	154.680000
556.287109	155.120000
556.380676	155.040000
556.474304	155.140000
556.567871	155.480000
556.661499	154.880000
556.755066	154.560000
556.848694	154.680000
556.942261	154.200000
557.035889	154.200000
557.129517	154.720000
557.223145	155.220000
557.316711	155.560000
557.410339	155.940000
557.503906	155.760000
557.597473	155.940000
557.691040	155.220000
557.784668	155.240000
557.878296	155.240000
557.971863	155.400000
558.065491	155.200000
558.159058	155.180000
558.252686	155.940000
558.346252	156.620000
558.439880	156.080000
558.533447	155.640000
558.627075	155.500000
558.720642	154.620000
558.814270	153.880000
558.907837	154.140000
559.001465	153.980000
559.095032	154.780000
559.188660	155.140000
559.282227	154.320000
559.375854	154.580000
559.469360	154.980000
559.562988	155.140000
559.656555	154.740000
559.750183	154.920000
559.843750	155.140000
559.937378	155.260000
560.030945	154.500000
560.124573	0.000000
560.218140	0.000000
560.311707	0.000000
560.405334	0.000000
560.498901	0.000000
560.592529	0.000000
560.686096	0.000000
560.779724	0.000000
560.873291	0.000000
560.966858	0.000000
561.060425	0.000000
561.154053	0.000000
561.247620	0.000000
561.341248	0.000000
561.434814	0.000000
561.528381	0.000000
561.621948	0.000000
561.715576	0.000000
561.809143	0.000000
561.902771	0.000000
561.996277	0.000000
562.089905	0.000000
562.183472	0.000000
562.277100	0.000000
