Model Number: SPM-002-B   
Serial Number: 70087108
Firmware Version: 004.15.4
Exposure Time: 100000.000000us
Data Taken on: 15-01-2021 17:48:16.370
Wavelength	Amplitude
221.570786	0.000000
221.663406	0.000000
221.756027	0.000000
221.848648	0.000000
221.941269	0.000000
222.033905	0.000000
222.126526	0.000000
222.219162	0.000000
222.311798	0.000000
222.404419	0.000000
222.497055	0.000000
222.589676	0.000000
222.682312	0.000000
222.774933	0.000000
222.867569	0.000000
222.960205	0.000000
223.052841	0.000000
223.145462	0.000000
223.238098	0.000000
223.330734	0.000000
223.423386	0.000000
223.516022	0.000000
223.608658	0.000000
223.701309	0.000000
223.793945	0.000000
223.886581	0.000000
223.979218	0.000000
224.071869	0.000000
224.164505	0.000000
224.257156	0.000000
224.349792	0.000000
224.442444	0.000000
224.535095	0.000000
224.627747	0.000000
224.720398	0.000000
224.813034	0.000000
224.905685	0.000000
224.998337	153.420000
225.090988	153.320000
225.183640	153.440000
225.276291	153.640000
225.368942	154.300000
225.461594	154.640000
225.554245	155.200000
225.646912	155.320000
225.739578	155.640000
225.832230	155.940000
225.924896	155.220000
226.017548	155.200000
226.110199	155.620000
226.202866	154.740000
226.295532	154.740000
226.388184	154.460000
226.480850	153.680000
226.573517	153.200000
226.666168	153.580000
226.758835	153.700000
226.851501	154.640000
226.944183	155.020000
227.036850	154.760000
227.129517	155.060000
227.222183	155.320000
227.314850	155.260000
227.407516	155.380000
227.500198	156.200000
227.592865	155.680000
227.685532	154.980000
227.778214	154.560000
227.870880	154.900000
227.963562	155.080000
228.056229	155.560000
228.148926	155.900000
228.241592	156.780000
228.334274	155.920000
228.426956	155.580000
228.519638	155.600000
228.612305	154.720000
228.704987	154.360000
228.797668	154.840000
228.890350	154.300000
228.983032	153.720000
229.075714	154.980000
229.168396	154.540000
229.261108	154.100000
229.353790	154.340000
229.446472	154.800000
229.539169	154.460000
229.631851	154.200000
229.724533	154.400000
229.817230	154.420000
229.909912	155.300000
230.002609	155.300000
230.095306	155.560000
230.187988	155.780000
230.280685	155.500000
230.373383	154.100000
230.466095	153.600000
230.558792	153.840000
230.651474	153.720000
230.744171	153.760000
230.836868	153.880000
230.929581	154.280000
231.022278	154.280000
231.114975	154.560000
231.207672	154.640000
231.300369	155.280000
231.393082	155.320000
231.485779	155.240000
231.578506	154.860000
231.671204	155.260000
231.763916	154.720000
231.856613	154.640000
231.949326	154.700000
232.042023	154.640000
232.134735	154.240000
232.227448	154.180000
232.320160	154.240000
232.412872	154.420000
232.505585	155.460000
232.598297	155.640000
232.691010	155.720000
232.783722	155.340000
232.876450	155.740000
232.969162	154.740000
233.061874	154.340000
233.154587	153.980000
233.247314	154.220000
233.340027	153.320000
233.432739	154.100000
233.525467	154.300000
233.618179	155.200000
233.710907	155.120000
233.803635	155.720000
233.896347	155.520000
233.989090	156.280000
234.081818	155.920000
234.174545	156.200000
234.267258	155.800000
234.359985	155.940000
234.452713	155.360000
234.545441	155.000000
234.638168	154.580000
234.730896	154.800000
234.823639	154.300000
234.916367	154.520000
235.009094	154.820000
235.101822	155.100000
235.194580	155.020000
235.287308	155.400000
235.380051	155.000000
235.472778	155.180000
235.565521	155.360000
235.658249	155.060000
235.750992	154.960000
235.843719	155.200000
235.936462	155.480000
236.029205	154.840000
236.121948	154.480000
236.214691	154.740000
236.307449	155.160000
236.400192	154.400000
236.492935	154.640000
236.585678	155.280000
236.678421	155.120000
236.771164	154.800000
236.863907	155.680000
236.956665	155.740000
237.049408	157.260000
237.142151	156.700000
237.234909	157.420000
237.327652	157.100000
237.420410	156.960000
237.513153	155.740000
237.605927	155.860000
237.698669	155.120000
237.791428	154.620000
237.884186	155.260000
237.976944	154.720000
238.069702	155.000000
238.162445	154.400000
238.255203	154.300000
238.347961	154.480000
238.440720	154.680000
238.533478	154.400000
238.626266	154.640000
238.719025	155.320000
238.811783	154.940000
238.904541	154.700000
238.997314	154.680000
239.090073	154.240000
239.182831	154.200000
239.275604	154.920000
239.368362	154.760000
239.461136	155.040000
239.553909	155.360000
239.646667	154.740000
239.739441	154.060000
239.832214	154.820000
239.925003	154.920000
240.017761	155.540000
240.110535	156.200000
240.203308	155.880000
240.296082	155.360000
240.388855	155.240000
240.481628	155.200000
240.574417	155.440000
240.667191	155.720000
240.759964	155.680000
240.852737	155.600000
240.945526	155.220000
241.038315	154.860000
241.131088	154.760000
241.223877	155.520000
241.316650	155.060000
241.409439	155.680000
241.502228	155.120000
241.595001	155.540000
241.687790	154.560000
241.780579	155.180000
241.873367	155.100000
241.966141	155.600000
242.058929	155.020000
242.151718	155.760000
242.244507	155.700000
242.337311	154.980000
242.430099	155.260000
242.522903	155.460000
242.615692	154.860000
242.708481	154.720000
242.801270	155.300000
242.894073	155.140000
242.986862	155.100000
243.079651	155.620000
243.172455	155.720000
243.265244	155.500000
243.358063	154.780000
243.450867	155.060000
243.543655	155.080000
243.636459	155.120000
243.729263	155.640000
243.822067	156.220000
243.914856	156.360000
244.007660	156.140000
244.100464	156.160000
244.193268	155.540000
244.286072	155.460000
244.378876	154.880000
244.471680	154.720000
244.564499	155.100000
244.657318	155.760000
244.750122	156.120000
244.842926	155.600000
244.935745	156.060000
245.028549	155.300000
245.121368	154.780000
245.214172	154.380000
245.306992	155.060000
245.399796	154.500000
245.492615	154.720000
245.585434	154.720000
245.678253	155.000000
245.771072	154.840000
245.863892	155.280000
245.956711	155.460000
246.049530	155.100000
246.142349	154.640000
246.235168	154.700000
246.327988	155.140000
246.420807	154.900000
246.513626	155.520000
246.606445	155.640000
246.699280	155.880000
246.792099	155.340000
246.884918	155.100000
246.977753	154.620000
247.070587	154.720000
247.163422	154.200000
247.256241	154.060000
247.349075	154.500000
247.441895	154.660000
247.534729	154.380000
247.627563	154.620000
247.720383	155.260000
247.813217	154.940000
247.906052	154.720000
247.998886	154.800000
248.091736	154.720000
248.184570	154.340000
248.277405	154.280000
248.370239	155.260000
248.463074	156.560000
248.555908	156.940000
248.648743	156.980000
248.741592	157.460000
248.834427	156.700000
248.927261	155.460000
249.020111	155.780000
249.112946	156.100000
249.205795	155.520000
249.298630	155.560000
249.391495	155.460000
249.484344	154.680000
249.577179	154.580000
249.670029	154.940000
249.762878	155.440000
249.855728	155.820000
249.948563	156.060000
250.041412	155.600000
250.134262	155.780000
250.227112	155.540000
250.319962	155.320000
250.412827	155.440000
250.505692	154.940000
250.598541	154.840000
250.691391	154.280000
250.784241	154.380000
250.877106	154.720000
250.969955	154.880000
251.062805	155.560000
251.155670	156.320000
251.248520	156.040000
251.341385	155.700000
251.434235	155.700000
251.527100	154.840000
251.619965	154.160000
251.712814	155.080000
251.805695	155.000000
251.898560	155.280000
251.991425	155.780000
252.084290	156.340000
252.177155	155.640000
252.270020	155.680000
252.362885	155.880000
252.455750	155.700000
252.548615	155.380000
252.641479	155.180000
252.734360	155.040000
252.827240	154.620000
252.920105	154.800000
253.012970	154.880000
253.105850	154.780000
253.198715	154.680000
253.291595	154.920000
253.384460	154.240000
253.477341	154.160000
253.570221	154.640000
253.663086	154.360000
253.755966	155.120000
253.848846	155.200000
253.941727	155.280000
254.034592	154.840000
254.127472	154.580000
254.220367	154.140000
254.313248	154.460000
254.406128	153.900000
254.499008	154.460000
254.591904	155.440000
254.684784	155.800000
254.777664	155.720000
254.870544	155.660000
254.963440	155.540000
255.056335	155.360000
255.149216	154.800000
255.242111	155.140000
255.334991	155.760000
255.427887	155.680000
255.520767	155.880000
255.613663	156.020000
255.706558	155.560000
255.799438	155.640000
255.892334	155.220000
255.985229	154.940000
256.078125	154.700000
256.171021	154.680000
256.263916	154.580000
256.356812	154.980000
256.449707	155.000000
256.542603	154.640000
256.635498	155.200000
256.728394	155.080000
256.821289	154.780000
256.914215	155.300000
257.007080	155.720000
257.100006	155.800000
257.192932	156.280000
257.285828	156.680000
257.378723	155.840000
257.471619	155.840000
257.564545	155.020000
257.657440	155.100000
257.750336	155.500000
257.843262	155.480000
257.936157	156.380000
258.029053	156.860000
258.121979	156.740000
258.214874	156.180000
258.307800	156.320000
258.400696	155.100000
258.493622	155.020000
258.586517	154.120000
258.679443	154.240000
258.772339	153.900000
258.865265	154.200000
258.958160	153.820000
259.051086	154.980000
259.144012	154.900000
259.236938	155.980000
259.329834	155.980000
259.422791	155.960000
259.515717	154.900000
259.608612	154.640000
259.701538	154.440000
259.794464	154.080000
259.887390	154.060000
259.980316	153.960000
260.073212	153.900000
260.166138	152.880000
260.259064	153.340000
260.351990	153.960000
260.444916	154.220000
260.537842	155.000000
260.630768	155.920000
260.723694	155.980000
260.816620	155.680000
260.909546	155.540000
261.002472	155.060000
261.095398	154.420000
261.188354	154.140000
261.281281	154.020000
261.374207	154.620000
261.467133	155.220000
261.560089	155.540000
261.653015	155.400000
261.745972	155.920000
261.838867	156.020000
261.931824	155.860000
262.024780	155.660000
262.117706	156.080000
262.210663	155.940000
262.303589	155.640000
262.396515	155.400000
262.489471	156.440000
262.582397	156.080000
262.675354	155.480000
262.768280	155.620000
262.861237	155.780000
262.954163	155.260000
263.047119	155.680000
263.140045	155.580000
263.233002	155.560000
263.325958	155.220000
263.418884	154.360000
263.511841	154.160000
263.604797	154.420000
263.697723	154.380000
263.790680	154.540000
263.883636	155.520000
263.976593	155.560000
264.069550	155.680000
264.162476	155.320000
264.255463	155.260000
264.348419	154.820000
264.441376	154.980000
264.534332	154.580000
264.627289	154.760000
264.720245	155.300000
264.813202	154.760000
264.906158	154.860000
264.999115	155.560000
265.092072	155.480000
265.185028	155.680000
265.277985	156.000000
265.370941	155.940000
265.463898	155.920000
265.556854	155.860000
265.649811	155.020000
265.742798	155.140000
265.835754	155.140000
265.928711	155.440000
266.021667	155.580000
266.114655	155.620000
266.207611	156.160000
266.300568	155.460000
266.393585	154.720000
266.486511	154.920000
266.579498	154.220000
266.672485	153.680000
266.765442	153.760000
266.858429	154.240000
266.951385	153.640000
267.044342	153.940000
267.137329	153.960000
267.230316	154.400000
267.323273	153.980000
267.416260	154.720000
267.509216	154.840000
267.602203	154.880000
267.695160	155.180000
267.788147	155.300000
267.881134	154.440000
267.974091	154.880000
268.067078	154.720000
268.160065	154.420000
268.253052	154.200000
268.346008	154.580000
268.438995	154.100000
268.531982	154.280000
268.624969	153.840000
268.717987	154.240000
268.810944	154.260000
268.903961	154.700000
268.996948	154.200000
269.089905	155.040000
269.182892	154.820000
269.275879	155.200000
269.368866	154.720000
269.461853	155.380000
269.554871	154.820000
269.647858	155.120000
269.740845	155.420000
269.833832	155.880000
269.926819	155.580000
270.019806	155.640000
270.112793	155.040000
270.205811	154.880000
270.298798	154.440000
270.391785	154.920000
270.484772	154.720000
270.577789	154.960000
270.670776	154.000000
270.763763	153.900000
270.856750	153.840000
270.949768	153.620000
271.042786	153.660000
271.135773	153.940000
271.228790	154.620000
271.321808	154.040000
271.414795	154.220000
271.507782	153.860000
271.600800	153.940000
271.693817	153.860000
271.786804	154.380000
271.879822	154.660000
271.972809	155.100000
272.065826	155.480000
272.158844	154.860000
272.251831	155.460000
272.344849	155.360000
272.437866	154.960000
272.530853	154.920000
272.623871	155.460000
272.716888	154.180000
272.809906	154.500000
272.902893	154.500000
272.995911	153.740000
273.088928	153.560000
273.181946	154.040000
273.274963	153.460000
273.367981	153.700000
273.460999	154.100000
273.554047	154.560000
273.647003	155.140000
273.740051	155.260000
273.833069	155.760000
273.926086	155.880000
274.019135	155.140000
274.112152	154.620000
274.205170	154.940000
274.298187	154.800000
274.391205	154.540000
274.484222	155.000000
274.577240	154.820000
274.670258	154.560000
274.763306	154.520000
274.856323	154.820000
274.949341	154.680000
275.042358	155.160000
275.135406	155.140000
275.228424	154.800000
275.321442	154.840000
275.414490	154.620000
275.507507	154.800000
275.600525	155.280000
275.693573	155.240000
275.786591	154.880000
275.879669	155.180000
275.972656	154.640000
276.065735	154.220000
276.158752	154.800000
276.251801	155.920000
276.344818	156.000000
276.437866	156.100000
276.530884	155.820000
276.623932	155.120000
276.716980	154.960000
276.809998	154.820000
276.903046	154.660000
276.996094	155.880000
277.089111	156.420000
277.182159	156.500000
277.275208	156.360000
277.368256	156.660000
277.461304	155.740000
277.554321	155.080000
277.647369	154.780000
277.740417	154.840000
277.833466	154.420000
277.926514	154.600000
278.019562	155.400000
278.112610	154.700000
278.205688	154.820000
278.298706	155.140000
278.391785	154.860000
278.484833	154.080000
278.577881	154.280000
278.670929	154.600000
278.763977	154.820000
278.857025	155.180000
278.950073	155.740000
279.043121	155.480000
279.136169	154.920000
279.229248	154.460000
279.322296	154.580000
279.415344	154.220000
279.508392	154.360000
279.601440	154.600000
279.694519	154.460000
279.787567	154.180000
279.880615	154.020000
279.973694	154.080000
280.066742	153.940000
280.159790	154.400000
280.252869	154.160000
280.345917	154.480000
280.438995	154.340000
280.532074	154.480000
280.625122	154.740000
280.718201	155.300000
280.811279	155.020000
280.904327	155.140000
280.997406	155.240000
281.090454	154.920000
281.183533	154.400000
281.276581	154.520000
281.369659	154.300000
281.462738	154.440000
281.555786	154.700000
281.648865	155.040000
281.741943	154.980000
281.835022	155.760000
281.928070	155.180000
282.021149	154.800000
282.114227	154.460000
282.207306	154.620000
282.300385	154.760000
282.393433	155.180000
282.486511	155.000000
282.579590	155.720000
282.672668	155.920000
282.765747	155.200000
282.858856	154.920000
282.951904	155.200000
283.045013	155.160000
283.138062	155.380000
283.231171	155.720000
283.324249	156.140000
283.417328	156.100000
283.510406	155.680000
283.603485	155.300000
283.696564	155.060000
283.789642	154.800000
283.882751	154.720000
283.975830	155.460000
284.068909	155.260000
284.161987	156.040000
284.255066	155.580000
284.348175	155.800000
284.441254	155.020000
284.534332	155.680000
284.627441	155.040000
284.720520	154.900000
284.813599	154.760000
284.906708	155.060000
284.999786	154.160000
285.092896	153.680000
285.185974	155.060000
285.279053	154.540000
285.372192	154.460000
285.465240	155.460000
285.558380	155.580000
285.651459	154.940000
285.744568	155.980000
285.837677	155.600000
285.930756	155.340000
286.023865	155.640000
286.116943	154.980000
286.210052	154.680000
286.303162	154.700000
286.396240	154.400000
286.489349	154.060000
286.582458	154.680000
286.675568	154.320000
286.768646	154.660000
286.861755	154.800000
286.954865	155.780000
287.047974	155.340000
287.141083	155.380000
287.234161	155.040000
287.327271	154.720000
287.420380	154.540000
287.513519	154.560000
287.606598	154.660000
287.699738	155.000000
287.792816	155.020000
287.885956	154.860000
287.979034	155.240000
288.072174	155.500000
288.165283	155.160000
288.258392	155.700000
288.351501	155.200000
288.444611	154.960000
288.537720	155.200000
288.630859	155.160000
288.723969	155.240000
288.817078	155.540000
288.910187	155.540000
289.003296	154.820000
289.096436	154.500000
289.189545	154.000000
289.282654	153.720000
289.375763	154.220000
289.468903	154.980000
289.562012	155.560000
289.655121	155.520000
289.748260	155.740000
289.841400	155.560000
289.934509	154.860000
290.027649	154.900000
290.120728	154.880000
290.213898	154.980000
290.306976	154.540000
290.400146	154.760000
290.493256	154.240000
290.586395	154.620000
290.679535	154.680000
290.772644	155.120000
290.865784	154.620000
290.958893	154.800000
291.052032	154.620000
291.145172	154.780000
291.238281	154.340000
291.331421	154.460000
291.424561	155.000000
291.517670	154.560000
291.610809	154.200000
291.703949	154.340000
291.797089	154.740000
291.890228	154.080000
291.983337	154.560000
292.076477	154.680000
292.169617	154.900000
292.262756	154.720000
292.355927	154.860000
292.449036	154.280000
292.542206	154.400000
292.635315	154.500000
292.728485	155.340000
292.821625	155.100000
292.914764	156.480000
293.007904	156.580000
293.101044	156.640000
293.194183	155.820000
293.287323	156.200000
293.380463	155.480000
293.473602	155.100000
293.566742	155.040000
293.659882	155.540000
293.753021	155.600000
293.846191	155.500000
293.939331	155.100000
294.032471	154.780000
294.125610	154.320000
294.218781	154.860000
294.311920	155.100000
294.405060	155.520000
294.498230	155.460000
294.591370	155.560000
294.684540	154.560000
294.777679	154.200000
294.870850	154.580000
294.963959	154.440000
295.057159	154.040000
295.150299	154.600000
295.243469	154.620000
295.336609	153.800000
295.429779	154.080000
295.522919	154.580000
295.616089	154.620000
295.709229	155.000000
295.802399	155.340000
295.895569	155.120000
295.988708	155.120000
296.081879	155.240000
296.175018	154.680000
296.268188	154.800000
296.361359	155.480000
296.454529	155.440000
296.547668	155.000000
296.640839	155.300000
296.734009	154.980000
296.827179	154.820000
296.920319	155.140000
297.013519	155.020000
297.106659	155.140000
297.199860	155.220000
297.292999	155.120000
297.386200	154.480000
297.479309	154.320000
297.572510	154.360000
297.665680	154.260000
297.758850	154.140000
297.852020	154.200000
297.945190	154.540000
298.038361	153.760000
298.131531	154.940000
298.224701	154.760000
298.317871	154.600000
298.411072	154.240000
298.504242	154.140000
298.597412	153.420000
298.690582	153.700000
298.783752	153.800000
298.876923	154.280000
298.970093	154.580000
299.063293	154.620000
299.156464	154.580000
299.249634	154.920000
299.342834	154.940000
299.436005	155.520000
299.529205	155.520000
299.622345	155.900000
299.715576	155.120000
299.808716	154.820000
299.901917	154.620000
299.995117	154.720000
300.088287	154.600000
300.181488	154.920000
300.274658	154.720000
300.367828	154.660000
300.461029	154.600000
300.554199	154.860000
300.647400	155.220000
300.740601	155.860000
300.833771	155.520000
300.926971	155.640000
301.020142	154.720000
301.113342	154.320000
301.206512	154.080000
301.299713	154.440000
301.392914	154.160000
301.486084	154.680000
301.579285	154.960000
301.672516	155.260000
301.765686	155.080000
301.858887	155.160000
301.952057	154.960000
302.045288	155.020000
302.138458	155.040000
302.231659	155.120000
302.324860	154.980000
302.418060	154.880000
302.511261	154.740000
302.604462	154.900000
302.697662	154.680000
302.790863	154.640000
302.884064	154.300000
302.977264	154.380000
303.070465	154.120000
303.163666	154.920000
303.256866	155.180000
303.350067	155.480000
303.443268	155.560000
303.536469	155.900000
303.629669	155.420000
303.722870	155.800000
303.816071	155.680000
303.909271	155.500000
304.002472	154.480000
304.095673	154.200000
304.188934	153.360000
304.282104	154.380000
304.375336	154.640000
304.468506	155.140000
304.561768	154.980000
304.654968	155.640000
304.748169	154.800000
304.841370	154.380000
304.934601	154.720000
305.027802	154.580000
305.121002	154.300000
305.214233	154.360000
305.307434	154.540000
305.400665	155.040000
305.493866	155.200000
305.587097	155.460000
305.680298	155.260000
305.773499	155.660000
305.866730	155.060000
305.959930	156.060000
306.053162	156.140000
306.146393	156.400000
306.239594	155.600000
306.332825	155.500000
306.426025	155.480000
306.519287	155.040000
306.612488	155.120000
306.705719	155.400000
306.798920	155.380000
306.892181	154.520000
306.985352	154.040000
307.078613	153.200000
307.171844	153.780000
307.265045	153.360000
307.358276	153.340000
307.451508	154.260000
307.544739	155.460000
307.637970	154.780000
307.731201	154.980000
307.824402	155.520000
307.917633	155.500000
308.010864	155.600000
308.104095	156.340000
308.197327	156.640000
308.290558	156.500000
308.383789	155.880000
308.477020	155.420000
308.570251	154.560000
308.663483	154.100000
308.756714	154.080000
308.849976	154.420000
308.943176	154.840000
309.036438	154.840000
309.129639	154.860000
309.222900	154.880000
309.316101	154.840000
309.409393	154.280000
309.502625	154.080000
309.595856	154.320000
309.689087	154.100000
309.782318	153.860000
309.875580	153.860000
309.968811	154.480000
310.062042	154.400000
310.155273	154.560000
310.248535	155.300000
310.341766	155.240000
310.434998	154.780000
310.528259	154.620000
310.621490	154.680000
310.714722	153.660000
310.807983	153.820000
310.901215	154.080000
310.994476	154.380000
311.087708	154.080000
311.181000	154.660000
311.274200	154.280000
311.367462	154.340000
311.460693	153.960000
311.553986	154.640000
311.647186	154.820000
311.740479	155.660000
311.833710	155.200000
311.926971	155.380000
312.020203	154.620000
312.113464	154.300000
312.206726	153.380000
312.299957	153.760000
312.393219	154.060000
312.486481	154.580000
312.579712	154.480000
312.672974	154.960000
312.766235	154.880000
312.859497	154.680000
312.952759	154.400000
313.045990	155.260000
313.139252	154.620000
313.232513	155.120000
313.325775	155.120000
313.419037	154.820000
313.512299	153.800000
313.605530	154.920000
313.698822	154.700000
313.792053	154.980000
313.885345	154.740000
313.978577	155.220000
314.071869	154.260000
314.165131	154.200000
314.258392	154.440000
314.351654	155.180000
314.444916	154.640000
314.538177	155.600000
314.631439	156.100000
314.724701	155.740000
314.817993	155.420000
314.911255	155.780000
315.004517	154.960000
315.097778	154.440000
315.191040	154.960000
315.284302	155.400000
315.377594	155.280000
315.470856	155.520000
315.564117	155.160000
315.657379	154.280000
315.750671	153.680000
315.843933	154.200000
315.937195	153.840000
316.030518	154.060000
316.123749	154.180000
316.217041	154.880000
316.310303	154.340000
316.403595	154.660000
316.496857	154.740000
316.590149	155.220000
316.683411	154.540000
316.776703	154.460000
316.869965	154.560000
316.963257	154.340000
317.056519	153.500000
317.149811	153.540000
317.243073	154.020000
317.336365	153.920000
317.429626	154.280000
317.522919	155.120000
317.616180	155.260000
317.709473	154.560000
317.802765	154.320000
317.896027	154.080000
317.989319	154.140000
318.082611	154.080000
318.175873	154.140000
318.269165	154.440000
318.362488	154.720000
318.455750	154.320000
318.549042	154.700000
318.642303	155.400000
318.735626	155.020000
318.828888	154.860000
318.922211	154.440000
319.015472	154.840000
319.108765	153.880000
319.202057	153.780000
319.295349	153.980000
319.388641	154.160000
319.481934	153.780000
319.575226	154.160000
319.668518	154.620000
319.761810	154.720000
319.855103	154.860000
319.948395	154.760000
320.041687	154.860000
320.134979	154.640000
320.228271	154.440000
320.321564	154.220000
320.414856	154.120000
320.508148	153.720000
320.601440	153.680000
320.694763	153.460000
320.788025	154.540000
320.881348	154.720000
320.974640	154.880000
321.067963	154.620000
321.161224	154.980000
321.254547	154.100000
321.347839	154.640000
321.441162	154.720000
321.534454	155.220000
321.627747	154.900000
321.721069	155.560000
321.814362	155.200000
321.907654	155.440000
322.000946	155.040000
322.094269	155.880000
322.187561	155.420000
322.280884	155.520000
322.374176	155.340000
322.467468	155.900000
322.560791	155.820000
322.654083	156.140000
322.747406	156.220000
322.840698	156.540000
322.934021	156.940000
323.027344	157.020000
323.120636	156.440000
323.213959	156.180000
323.307251	155.560000
323.400574	154.940000
323.493866	154.020000
323.587219	154.680000
323.680511	154.960000
323.773834	155.140000
323.867157	155.140000
323.960449	155.440000
324.053772	154.780000
324.147095	154.660000
324.240387	155.440000
324.333710	155.540000
324.427032	155.680000
324.520355	155.860000
324.613647	155.420000
324.706970	154.780000
324.800293	154.660000
324.893616	154.540000
324.986938	154.620000
325.080231	154.660000
325.173553	155.320000
325.266876	155.880000
325.360199	155.960000
325.453522	155.700000
325.546875	155.560000
325.640167	155.240000
325.733521	155.060000
325.826813	155.320000
325.920166	155.400000
326.013489	155.400000
326.106812	154.900000
326.200134	154.360000
326.293457	153.420000
326.386780	153.540000
326.480103	153.180000
326.573425	153.120000
326.666748	153.240000
326.760071	153.920000
326.853424	153.840000
326.946747	154.020000
327.040070	154.980000
327.133392	154.620000
327.226715	153.980000
327.320068	153.920000
327.413391	154.740000
327.506714	153.920000
327.600037	153.840000
327.693390	154.320000
327.786713	154.420000
327.880066	154.080000
327.973358	154.660000
328.066742	155.840000
328.160034	156.320000
328.253418	156.420000
328.346710	155.960000
328.440063	155.300000
328.533417	154.560000
328.626740	154.520000
328.720093	153.980000
328.813416	154.060000
328.906769	154.460000
329.000092	154.840000
329.093445	154.740000
329.186768	154.960000
329.280121	155.720000
329.373444	155.600000
329.466797	155.300000
329.560120	155.160000
329.653473	155.660000
329.746796	155.000000
329.840149	154.720000
329.933502	154.840000
330.026825	154.640000
330.120178	154.100000
330.213562	153.920000
330.306854	154.360000
330.400238	154.260000
330.493561	154.160000
330.586945	154.820000
330.680237	155.240000
330.773621	154.800000
330.866974	154.700000
330.960327	154.900000
331.053680	154.440000
331.147003	154.620000
331.240356	155.200000
331.333710	155.300000
331.427063	154.920000
331.520416	154.720000
331.613770	154.340000
331.707123	154.380000
331.800476	154.660000
331.893829	155.660000
331.987152	156.020000
332.080505	155.980000
332.173859	155.420000
332.267212	154.740000
332.360565	154.160000
332.453918	153.920000
332.547333	153.780000
332.640656	153.900000
332.734039	154.420000
332.827362	154.080000
332.920746	154.620000
333.014069	155.340000
333.107452	155.840000
333.200806	155.920000
333.294159	156.400000
333.387543	155.840000
333.480896	154.900000
333.574249	154.320000
333.667603	154.040000
333.760956	154.060000
333.854340	154.060000
333.947693	154.360000
334.041046	154.600000
334.134430	154.980000
334.227783	154.640000
334.321136	154.300000
334.414520	154.060000
334.507874	154.220000
334.601227	153.880000
334.694611	154.000000
334.787964	154.500000
334.881348	155.020000
334.974701	154.840000
335.068085	154.820000
335.161438	155.140000
335.254822	155.100000
335.348175	155.140000
335.441559	154.580000
335.534943	155.120000
335.628296	154.600000
335.721680	154.320000
335.815033	154.320000
335.908417	155.000000
336.001770	154.720000
336.095154	154.740000
336.188538	154.700000
336.281891	154.160000
336.375275	153.480000
336.468658	153.460000
336.562012	153.580000
336.655396	154.220000
336.748779	154.720000
336.842133	155.180000
336.935516	155.300000
337.028900	155.040000
337.122284	154.520000
337.215637	154.500000
337.309021	154.280000
337.402435	153.900000
337.495789	153.800000
337.589203	153.760000
337.682526	153.680000
337.775940	154.240000
337.869324	154.600000
337.962708	154.520000
338.056091	155.060000
338.149475	154.520000
338.242859	154.380000
338.336243	153.880000
338.429626	154.480000
338.523010	154.220000
338.616394	154.540000
338.709778	154.400000
338.803162	154.940000
338.896545	154.780000
338.989929	154.680000
339.083313	154.860000
339.176697	154.580000
339.270081	154.220000
339.363464	154.480000
339.456848	154.720000
339.550232	154.400000
339.643616	154.560000
339.737030	154.640000
339.830383	154.200000
339.923828	154.140000
340.017181	154.320000
340.110596	154.340000
340.203949	154.260000
340.297363	154.100000
340.390778	154.040000
340.484161	154.000000
340.577545	154.320000
340.670959	154.220000
340.764343	154.500000
340.857727	154.500000
340.951111	154.140000
341.044525	153.880000
341.137909	153.540000
341.231293	153.260000
341.324707	152.860000
341.418091	154.060000
341.511505	154.000000
341.604889	154.640000
341.698303	154.920000
341.791687	155.200000
341.885071	154.380000
341.978485	154.340000
342.071899	154.480000
342.165283	154.580000
342.258698	154.800000
342.352081	155.340000
342.445496	155.860000
342.538879	155.500000
342.632324	155.040000
342.725708	154.800000
342.819122	154.220000
342.912506	153.860000
343.005920	153.800000
343.099335	154.860000
343.192719	154.760000
343.286133	154.720000
343.379547	154.800000
343.472931	154.860000
343.566345	154.100000
343.659760	154.280000
343.753143	154.260000
343.846558	153.940000
343.939972	153.760000
344.033386	154.120000
344.126770	154.120000
344.220184	154.280000
344.313599	154.680000
344.407043	154.800000
344.500427	154.220000
344.593872	154.520000
344.687225	153.940000
344.780670	153.480000
344.874054	153.460000
344.967499	154.000000
345.060913	153.980000
345.154327	154.380000
345.247742	154.280000
345.341156	154.080000
345.434570	153.520000
345.527985	153.180000
345.621399	153.220000
345.714813	153.460000
345.808228	153.880000
345.901642	153.780000
345.995056	153.520000
346.088470	153.840000
346.181885	153.860000
346.275299	153.260000
346.368713	153.400000
346.462128	153.480000
346.555573	153.060000
346.648987	153.640000
346.742401	153.700000
346.835815	154.300000
346.929260	154.060000
347.022644	154.180000
347.116119	153.920000
347.209503	154.540000
347.302948	155.140000
347.396362	155.900000
347.489807	156.340000
347.583221	156.820000
347.676636	156.560000
347.770050	155.460000
347.863495	154.820000
347.956909	154.580000
348.050323	153.720000
348.143768	153.640000
348.237183	153.540000
348.330597	154.340000
348.424042	154.700000
348.517456	155.320000
348.610901	155.680000
348.704315	155.780000
348.797760	155.100000
348.891174	154.380000
348.984619	153.560000
349.078033	153.880000
349.171448	154.260000
349.264923	153.980000
349.358337	154.160000
349.451782	154.380000
349.545197	153.500000
349.638641	153.160000
349.732086	152.940000
349.825500	153.440000
349.918945	153.280000
350.012390	153.980000
350.105804	154.740000
350.199249	155.360000
350.292664	155.400000
350.386108	155.720000
350.479553	156.000000
350.572968	155.300000
350.666412	155.340000
350.759857	155.100000
350.853302	155.640000
350.946716	154.900000
351.040161	155.300000
351.133606	155.420000
351.227081	155.340000
351.320465	155.680000
351.413940	155.900000
351.507355	155.800000
351.600830	155.660000
351.694244	155.480000
351.787720	154.720000
351.881104	154.700000
351.974579	154.440000
352.067993	155.380000
352.161469	155.520000
352.254883	155.260000
352.348358	155.200000
352.441803	155.500000
352.535248	154.660000
352.628693	154.900000
352.722137	154.980000
352.815582	155.280000
352.909027	155.320000
353.002472	155.460000
353.095917	154.940000
353.189362	155.280000
353.282806	154.980000
353.376251	154.780000
353.469696	154.280000
353.563141	154.940000
353.656586	154.580000
353.750061	154.260000
353.843475	154.120000
353.936981	154.800000
354.030396	154.240000
354.123871	154.460000
354.217285	155.500000
354.310760	155.620000
354.404175	155.540000
354.497681	155.300000
354.591095	155.180000
354.684570	154.120000
354.777985	153.820000
354.871490	153.280000
354.964935	154.040000
355.058380	154.440000
355.151855	154.380000
355.245300	154.860000
355.338745	155.520000
355.432220	155.340000
355.525665	154.380000
355.619110	154.980000
355.712585	154.580000
355.806030	153.920000
355.899475	153.140000
355.992950	154.060000
356.086426	154.280000
356.179871	154.600000
356.273346	154.920000
356.366791	155.720000
356.460266	155.660000
356.553711	154.940000
356.647186	154.800000
356.740631	154.440000
356.834106	153.940000
356.927551	154.100000
357.021027	154.460000
357.114471	154.400000
357.207947	154.640000
357.301422	155.080000
357.394867	154.900000
357.488342	154.980000
357.581818	155.200000
357.675262	155.260000
357.768738	154.820000
357.862213	154.260000
357.955658	154.360000
358.049133	153.920000
358.142609	154.260000
358.236053	154.440000
358.329529	154.920000
358.423035	155.100000
358.516449	154.860000
358.609955	155.260000
358.703400	155.960000
358.796906	155.680000
358.890350	154.940000
358.983826	155.920000
359.077271	154.840000
359.170776	154.200000
359.264221	154.040000
359.357727	154.420000
359.451172	154.300000
359.544647	154.640000
359.638123	154.620000
359.731598	155.000000
359.825073	155.440000
359.918549	155.200000
360.012024	155.240000
360.105499	154.740000
360.198975	154.880000
360.292450	154.480000
360.385925	154.460000
360.479401	154.180000
360.572876	154.580000
360.666351	154.720000
360.759857	154.440000
360.853302	154.580000
360.946808	154.200000
361.040253	154.340000
361.133759	153.740000
361.227203	154.320000
361.320709	153.900000
361.414154	154.480000
361.507660	154.900000
361.601105	155.460000
361.694641	155.680000
361.788086	155.880000
361.881592	156.480000
361.975067	155.920000
362.068542	156.120000
362.162018	155.920000
362.255524	155.520000
362.348999	154.980000
362.442474	155.100000
362.535950	154.480000
362.629456	154.360000
362.722931	154.320000
362.816406	154.740000
362.909882	155.140000
363.003387	154.760000
363.096863	154.880000
363.190338	155.120000
363.283875	154.700000
363.377319	154.420000
363.470825	155.460000
363.564301	154.960000
363.657806	154.980000
363.751282	154.640000
363.844788	155.360000
363.938232	154.660000
364.031769	155.440000
364.125214	156.080000
364.218750	156.900000
364.312225	155.500000
364.405731	155.480000
364.499207	154.920000
364.592712	154.600000
364.686188	154.160000
364.779694	154.620000
364.873169	154.520000
364.966675	154.280000
365.060150	154.040000
365.153656	154.460000
365.247131	154.520000
365.340637	155.140000
365.434143	155.900000
365.527618	156.060000
365.621155	155.140000
365.714600	155.200000
365.808136	155.040000
365.901611	153.740000
365.995117	153.040000
366.088593	153.340000
366.182129	153.220000
366.275604	153.360000
366.369110	153.860000
366.462585	154.440000
366.556122	155.160000
366.649567	155.300000
366.743103	155.020000
366.836609	154.940000
366.930115	155.180000
367.023590	155.000000
367.117096	154.980000
367.210602	154.840000
367.304108	155.460000
367.397614	155.840000
367.491119	155.680000
367.584595	155.680000
367.678101	156.140000
367.771606	155.520000
367.865112	154.880000
367.958649	154.280000
368.052124	154.120000
368.145660	153.900000
368.239136	154.380000
368.332672	154.640000
368.426147	155.420000
368.519684	155.180000
368.613159	155.340000
368.706696	155.160000
368.800171	155.200000
368.893707	154.720000
368.987183	154.940000
369.080719	154.760000
369.174225	154.420000
369.267731	154.280000
369.361237	154.380000
369.454742	154.480000
369.548248	154.820000
369.641754	154.800000
369.735260	154.440000
369.828766	153.860000
369.922272	154.600000
370.015808	154.240000
370.109314	154.240000
370.202820	154.320000
370.296356	155.380000
370.389832	154.820000
370.483368	154.360000
370.576874	153.960000
370.670410	154.440000
370.763885	153.620000
370.857422	153.480000
370.950928	153.700000
371.044464	155.000000
371.137939	154.760000
371.231476	154.840000
371.324982	155.320000
371.418518	155.680000
371.512024	155.120000
371.605560	155.080000
371.699066	155.440000
371.792572	155.000000
371.886108	155.100000
371.979614	154.780000
372.073120	155.220000
372.166656	155.260000
372.260162	155.380000
372.353668	155.040000
372.447205	155.160000
372.540710	154.840000
372.634277	154.380000
372.727753	154.240000
372.821320	154.240000
372.914795	154.400000
373.008362	154.200000
373.101837	154.640000
373.195404	154.500000
373.288879	154.300000
373.382446	155.040000
373.475922	155.360000
373.569489	155.960000
373.662964	156.520000
373.756531	156.900000
373.850037	156.720000
373.943573	156.180000
374.037109	155.120000
374.130615	155.060000
374.224152	154.740000
374.317657	154.080000
374.411194	155.060000
374.504730	155.000000
374.598236	154.800000
374.691772	154.680000
374.785309	154.980000
374.878815	153.780000
374.972351	154.520000
375.065887	154.060000
375.159454	155.280000
375.252930	155.080000
375.346497	155.640000
375.440002	155.960000
375.533569	156.260000
375.627045	154.880000
375.720612	154.980000
375.814117	155.400000
375.907684	154.700000
376.001160	154.520000
376.094727	154.400000
376.188232	155.140000
376.281799	154.760000
376.375336	154.720000
376.468872	155.680000
376.562408	156.280000
376.655914	155.220000
376.749451	155.380000
376.842987	155.700000
376.936523	154.660000
377.030060	154.560000
377.123596	155.100000
377.217133	154.300000
377.310669	154.100000
377.404205	154.740000
377.497772	155.360000
377.591278	155.100000
377.684845	156.200000
377.778351	156.500000
377.871918	155.900000
377.965424	154.560000
378.058990	154.620000
378.152496	154.220000
378.246063	154.180000
378.339569	154.800000
378.433136	155.300000
378.526642	155.220000
378.620209	155.060000
378.713745	154.420000
378.807312	154.640000
378.900848	154.760000
378.994385	154.820000
379.087921	154.160000
379.181458	154.840000
379.274994	154.140000
379.368530	153.860000
379.462097	154.180000
379.555634	155.160000
379.649170	154.280000
379.742706	154.440000
379.836273	154.820000
379.929810	154.320000
380.023376	153.760000
380.116882	153.960000
380.210449	153.840000
380.303986	153.460000
380.397552	152.960000
380.491058	153.320000
380.584656	153.320000
380.678162	153.480000
380.771729	153.680000
380.865265	154.880000
380.958832	154.820000
381.052368	155.380000
381.145935	155.800000
381.239471	156.200000
381.333008	155.860000
381.426575	155.500000
381.520111	155.580000
381.613647	155.760000
381.707214	155.400000
381.800751	154.760000
381.894318	155.580000
381.987854	154.720000
382.081421	154.180000
382.174988	154.500000
382.268524	154.540000
382.362091	154.160000
382.455627	155.340000
382.549194	155.220000
382.642731	154.360000
382.736298	154.460000
382.829834	154.100000
382.923401	154.300000
383.016937	154.480000
383.110504	155.220000
383.204041	155.600000
383.297607	156.120000
383.391174	155.020000
383.484741	155.520000
383.578278	155.240000
383.671844	154.900000
383.765411	153.900000
383.858948	154.640000
383.952515	154.260000
384.046051	154.760000
384.139618	155.280000
384.233185	155.880000
384.326721	155.360000
384.420288	155.940000
384.513855	155.420000
384.607422	155.360000
384.700989	155.840000
384.794525	155.480000
384.888123	155.200000
384.981659	155.620000
385.075226	155.260000
385.168762	154.680000
385.262360	155.180000
385.355896	154.080000
385.449463	153.760000
385.542999	153.680000
385.636597	154.560000
385.730164	154.820000
385.823730	154.800000
385.917267	154.600000
386.010834	154.920000
386.104401	154.580000
386.197968	154.740000
386.291534	155.560000
386.385101	155.700000
386.478668	156.180000
386.572235	156.000000
386.665802	155.280000
386.759338	154.780000
386.852905	154.840000
386.946472	154.200000
387.040070	154.340000
387.133606	154.560000
387.227203	154.860000
387.320740	154.980000
387.414337	154.580000
387.507874	154.240000
387.601471	154.480000
387.695007	154.120000
387.788605	153.840000
387.882141	154.320000
387.975739	154.620000
388.069275	154.160000
388.162872	154.560000
388.256439	154.560000
388.350037	154.060000
388.443604	153.580000
388.537170	153.520000
388.630737	154.140000
388.724304	154.380000
388.817871	154.520000
388.911438	155.040000
389.005005	155.400000
389.098602	155.140000
389.192169	154.900000
389.285736	155.680000
389.379333	155.440000
389.472870	155.000000
389.566467	154.720000
389.660034	154.800000
389.753632	153.900000
389.847168	154.300000
389.940765	154.740000
390.034332	155.060000
390.127930	154.800000
390.221466	155.220000
390.315063	154.820000
390.408630	154.100000
390.502228	152.980000
390.595795	153.320000
390.689362	153.160000
390.782959	153.440000
390.876526	154.260000
390.970093	154.800000
391.063690	155.300000
391.157257	155.520000
391.250824	155.860000
391.344421	155.360000
391.437988	155.840000
391.531555	155.880000
391.625153	155.660000
391.718750	155.580000
391.812317	155.820000
391.905914	155.260000
391.999481	154.960000
392.093079	155.260000
392.186615	155.280000
392.280243	155.140000
392.373779	155.320000
392.467407	155.740000
392.560944	155.560000
392.654572	154.980000
392.748108	155.080000
392.841736	155.060000
392.935303	154.300000
393.028900	154.240000
393.122467	154.620000
393.216064	154.220000
393.309631	153.680000
393.403229	153.700000
393.496796	153.680000
393.590393	152.680000
393.683990	153.160000
393.777557	153.820000
393.871155	154.120000
393.964722	154.500000
394.058350	154.960000
394.151917	154.980000
394.245514	154.680000
394.339081	155.140000
394.432678	155.240000
394.526245	155.340000
394.619873	154.940000
394.713409	155.240000
394.807037	154.440000
394.900604	154.180000
394.994202	154.220000
395.087769	154.780000
395.181396	154.200000
395.274994	155.200000
395.368561	154.680000
395.462158	154.760000
395.555756	154.280000
395.649353	154.840000
395.742920	154.100000
395.836517	154.780000
395.930115	154.200000
396.023712	154.500000
396.117279	154.620000
396.210876	154.280000
396.304474	154.000000
396.398071	154.800000
396.491669	154.960000
396.585266	154.600000
396.678833	154.340000
396.772461	154.700000
396.866028	154.340000
396.959656	154.220000
397.053223	154.640000
397.146851	154.560000
397.240417	154.380000
397.334015	155.080000
397.427582	154.880000
397.521210	154.540000
397.614807	155.200000
397.708405	155.280000
397.802002	154.880000
397.895599	155.660000
397.989197	155.820000
398.082794	155.900000
398.176392	156.120000
398.269989	156.240000
398.363586	156.180000
398.457184	157.320000
398.550781	157.980000
398.644379	158.340000
398.737976	159.440000
398.831573	161.400000
398.925201	163.740000
399.018768	169.440000
399.112396	178.660000
399.205963	192.880000
399.299591	214.100000
399.393158	247.460000
399.486786	304.880000
399.580353	410.540000
399.673981	598.800000
399.767578	896.220000
399.861206	1284.860000
399.954773	1700.360000
400.048401	2032.640000
400.141998	2191.240000
400.235596	2122.680000
400.329193	1858.820000
400.422791	1477.300000
400.516418	1086.960000
400.610016	757.380000
400.703613	525.740000
400.797211	375.560000
400.890808	286.000000
400.984436	234.000000
401.078033	204.880000
401.171631	186.800000
401.265259	177.200000
401.358826	171.120000
401.452484	167.180000
401.546051	164.620000
401.639679	162.740000
401.733246	161.880000
401.826904	160.340000
401.920471	158.520000
402.014099	157.880000
402.107697	157.380000
402.201324	156.840000
402.294891	156.820000
402.388550	157.260000
402.482147	157.320000
402.575745	157.020000
402.669373	156.200000
402.762970	155.720000
402.856567	155.320000
402.950195	155.060000
403.043793	155.100000
403.137390	156.040000
403.231018	155.460000
403.324615	156.440000
403.418243	155.960000
403.511841	156.260000
403.605469	155.880000
403.699066	156.600000
403.792694	156.340000
403.886292	156.700000
403.979919	156.220000
404.073517	155.940000
404.167145	155.860000
404.260712	155.220000
404.354370	154.960000
404.447937	155.240000
404.541595	155.380000
404.635162	155.660000
404.728821	156.320000
404.822418	155.900000
404.916046	155.560000
405.009644	155.680000
405.103271	155.800000
405.196899	154.920000
405.290497	155.060000
405.384125	155.440000
405.477722	154.940000
405.571350	154.060000
405.664948	154.460000
405.758575	154.420000
405.852203	153.960000
405.945801	154.400000
406.039429	154.800000
406.133057	154.620000
406.226654	154.520000
406.320312	154.600000
406.413879	154.860000
406.507538	155.120000
406.601135	154.880000
406.694763	155.580000
406.788361	155.220000
406.882019	154.480000
406.975586	154.820000
407.069244	155.160000
407.162872	154.900000
407.256470	154.860000
407.350098	154.880000
407.443726	154.120000
407.537323	153.940000
407.630951	153.920000
407.724579	154.020000
407.818207	154.660000
407.911804	154.560000
408.005432	154.340000
408.099060	155.020000
408.192688	155.340000
408.286285	154.920000
408.379913	154.500000
408.473572	154.700000
408.567169	153.560000
408.660828	153.440000
408.754395	152.960000
408.848053	153.520000
408.941650	153.700000
409.035309	153.700000
409.128906	154.120000
409.222565	154.700000
409.316132	154.860000
409.409790	154.540000
409.503387	154.940000
409.597046	154.620000
409.690674	154.640000
409.784302	154.460000
409.877930	154.660000
409.971558	154.720000
410.065186	154.340000
410.158783	154.240000
410.252411	154.380000
410.346039	154.580000
410.439667	154.660000
410.533295	155.320000
410.626923	155.460000
410.720551	155.020000
410.814209	155.420000
410.907806	155.240000
411.001465	154.620000
411.095062	154.600000
411.188721	155.060000
411.282318	154.640000
411.375977	154.360000
411.469574	154.920000
411.563232	154.520000
411.656830	154.260000
411.750488	153.780000
411.844086	153.800000
411.937744	153.840000
412.031372	154.020000
412.125000	154.100000
412.218628	154.560000
412.312256	155.100000
412.405884	155.220000
412.499512	155.200000
412.593170	155.800000
412.686798	155.780000
412.780426	155.300000
412.874054	155.120000
412.967682	155.140000
413.061310	155.060000
413.154968	155.340000
413.248566	155.520000
413.342224	155.040000
413.435852	155.060000
413.529510	154.500000
413.623108	153.580000
413.716766	153.300000
413.810364	154.220000
413.904022	153.720000
413.997650	153.640000
414.091309	154.880000
414.184906	155.160000
414.278564	154.420000
414.372192	155.240000
414.465851	155.640000
414.559479	155.000000
414.653107	155.420000
414.746735	155.420000
414.840393	155.200000
414.934021	155.100000
415.027649	154.800000
415.121277	154.700000
415.214935	155.340000
415.308563	155.300000
415.402191	154.740000
415.495850	155.020000
415.589478	154.580000
415.683136	153.900000
415.776733	154.260000
415.870422	155.160000
415.964020	154.860000
416.057678	154.980000
416.151306	155.140000
416.244965	154.700000
416.338562	154.380000
416.432251	155.120000
416.525848	155.720000
416.619507	156.280000
416.713165	156.720000
416.806793	156.640000
416.900421	156.500000
416.994080	155.420000
417.087708	154.740000
417.181366	154.100000
417.274994	154.100000
417.368622	154.060000
417.462280	155.060000
417.555908	155.200000
417.649567	155.320000
417.743195	155.220000
417.836853	155.000000
417.930481	154.980000
418.024170	155.040000
418.117767	155.600000
418.211426	156.080000
418.305054	156.480000
418.398712	155.880000
418.492340	155.840000
418.585999	155.960000
418.679626	155.680000
418.773285	155.420000
418.866913	155.720000
418.960571	155.880000
419.054230	155.700000
419.147858	155.640000
419.241516	155.840000
419.335144	155.440000
419.428802	155.520000
419.522461	155.000000
419.616089	154.760000
419.709747	154.640000
419.803375	155.080000
419.897034	154.620000
419.990662	154.740000
420.084320	155.340000
420.177979	155.780000
420.271606	155.720000
420.365295	156.540000
420.458893	156.660000
420.552582	156.780000
420.646210	156.520000
420.739868	156.360000
420.833496	155.760000
420.927155	155.160000
421.020782	154.520000
421.114471	153.800000
421.208069	154.000000
421.301758	154.480000
421.395386	155.240000
421.489044	155.360000
421.582703	155.760000
421.676361	156.340000
421.769989	155.600000
421.863647	155.900000
421.957306	155.940000
422.050934	156.000000
422.144592	155.260000
422.238251	155.200000
422.331909	154.840000
422.425537	154.560000
422.519196	154.580000
422.612854	154.180000
422.706543	154.120000
422.800140	154.220000
422.893829	154.020000
422.987457	153.660000
423.081146	154.120000
423.174744	154.820000
423.268433	154.560000
423.362061	154.860000
423.455750	154.820000
423.549347	155.040000
423.643036	153.900000
423.736664	154.440000
423.830353	154.020000
423.924011	154.640000
424.017639	153.880000
424.111298	154.500000
424.204956	154.240000
424.298615	154.720000
424.392273	154.440000
424.485931	154.900000
424.579559	155.240000
424.673218	154.820000
424.766876	155.140000
424.860535	154.740000
424.954193	154.560000
425.047882	154.720000
425.141510	155.140000
425.235199	154.880000
425.328796	155.020000
425.422485	155.140000
425.516113	154.320000
425.609802	154.120000
425.703430	154.480000
425.797119	154.160000
425.890747	154.340000
425.984436	154.860000
426.078064	154.860000
426.171753	154.260000
426.265411	154.380000
426.359070	154.580000
426.452728	154.500000
426.546356	154.440000
426.640015	154.740000
426.733673	155.080000
426.827332	154.420000
426.920990	155.160000
427.014648	154.920000
427.108307	155.040000
427.201965	155.400000
427.295624	155.900000
427.389282	154.900000
427.482941	155.460000
427.576630	155.300000
427.670258	154.540000
427.763947	154.380000
427.857574	154.680000
427.951263	154.540000
428.044922	153.980000
428.138611	154.140000
428.232239	154.500000
428.325928	155.080000
428.419556	155.500000
428.513245	155.820000
428.606903	156.120000
428.700562	155.720000
428.794220	154.820000
428.887878	154.060000
428.981537	154.560000
429.075195	154.680000
429.168854	155.260000
429.262512	155.720000
429.356201	156.180000
429.449860	156.120000
429.543518	156.040000
429.637177	156.100000
429.730835	156.160000
429.824493	155.680000
429.918182	155.920000
430.011810	155.340000
430.105530	154.500000
430.199158	154.420000
430.292847	154.760000
430.386475	154.280000
430.480164	154.540000
430.573792	154.620000
430.667511	154.380000
430.761139	154.520000
430.854828	155.240000
430.948456	155.300000
431.042145	155.800000
431.135834	155.720000
431.229492	155.920000
431.323151	155.800000
431.416809	155.720000
431.510468	155.360000
431.604156	155.440000
431.697815	155.020000
431.791473	154.220000
431.885132	154.040000
431.978821	154.500000
432.072479	154.740000
432.166138	155.200000
432.259827	155.380000
432.353485	155.760000
432.447174	155.740000
432.540802	155.540000
432.634491	155.240000
432.728149	155.800000
432.821838	156.500000
432.915466	156.100000
433.009186	156.360000
433.102814	155.860000
433.196503	155.280000
433.290131	154.840000
433.383850	155.280000
433.477509	155.200000
433.571167	156.340000
433.664856	156.980000
433.758514	157.440000
433.852173	157.360000
433.945862	157.240000
434.039520	156.800000
434.133179	156.080000
434.226868	155.220000
434.320526	154.580000
434.414185	155.320000
434.507874	154.840000
434.601562	155.180000
434.695221	155.200000
434.788910	155.680000
434.882538	155.240000
434.976257	155.240000
435.069885	155.520000
435.163574	155.960000
435.257233	155.560000
435.350922	155.560000
435.444580	155.380000
435.538269	154.900000
435.631897	155.140000
435.725616	155.780000
435.819275	156.140000
435.912964	156.840000
436.006622	157.240000
436.100311	157.200000
436.193970	156.620000
436.287628	156.040000
436.381317	155.700000
436.474976	155.040000
436.568665	154.240000
436.662323	154.440000
436.756012	154.660000
436.849670	154.640000
436.943390	154.800000
437.037018	155.160000
437.130737	155.080000
437.224365	154.920000
437.318085	154.780000
437.411713	155.040000
437.505432	155.500000
437.599060	156.140000
437.692780	156.580000
437.786407	156.420000
437.880127	156.320000
437.973755	155.680000
438.067474	154.820000
438.161133	154.580000
438.254822	155.460000
438.348480	155.360000
438.442169	156.100000
438.535828	156.680000
438.629517	156.420000
438.723175	155.260000
438.816864	155.840000
438.910553	155.120000
439.004211	154.760000
439.097900	154.680000
439.191559	155.260000
439.285248	154.280000
439.378906	154.600000
439.472626	154.700000
439.566284	154.460000
439.659973	154.720000
439.753632	154.840000
439.847321	154.940000
439.940979	154.840000
440.034698	154.940000
440.128326	154.580000
440.222046	154.800000
440.315674	153.860000
440.409393	154.240000
440.503082	154.300000
440.596741	154.400000
440.690430	154.380000
440.784088	154.860000
440.877777	154.180000
440.971466	154.400000
441.065125	153.860000
441.158813	154.000000
441.252502	154.320000
441.346161	154.380000
441.439850	154.640000
441.533539	154.600000
441.627197	154.580000
441.720886	154.240000
441.814606	154.980000
441.908234	155.120000
442.001953	155.460000
442.095612	155.420000
442.189301	155.500000
442.282959	155.200000
442.376678	154.140000
442.470306	154.680000
442.564026	154.600000
442.657684	154.860000
442.751404	154.960000
442.845032	156.200000
442.938751	155.740000
443.032440	155.740000
443.126099	155.160000
443.219788	155.600000
443.313477	155.080000
443.407166	155.360000
443.500824	155.440000
443.594513	156.020000
443.688202	155.380000
443.781891	154.660000
443.875549	154.140000
443.969238	153.940000
444.062927	153.780000
444.156647	153.740000
444.250275	154.640000
444.343994	155.020000
444.437653	155.200000
444.531372	155.040000
444.625031	154.860000
444.718719	154.420000
444.812378	154.120000
444.906097	153.880000
444.999756	153.660000
445.093445	153.780000
445.187103	153.740000
445.280823	154.300000
445.374512	153.940000
445.468201	154.160000
445.561859	154.140000
445.655548	154.260000
445.749237	153.460000
445.842926	153.820000
445.936615	154.220000
446.030304	153.800000
446.123962	154.220000
446.217651	154.180000
446.311340	154.480000
446.405029	153.900000
446.498749	154.020000
446.592407	153.620000
446.686096	153.880000
446.779755	154.080000
446.873474	154.340000
446.967133	154.580000
447.060852	154.200000
447.154510	154.180000
447.248230	153.780000
447.341858	154.080000
447.435577	153.920000
447.529236	153.960000
447.622955	153.900000
447.716644	154.000000
447.810333	153.820000
447.904022	154.140000
447.997711	153.920000
448.091400	154.480000
448.185059	154.360000
448.278748	154.780000
448.372437	154.500000
448.466125	155.200000
448.559814	154.920000
448.653503	155.240000
448.747192	155.160000
448.840912	155.580000
448.934570	155.240000
449.028290	155.640000
449.121948	155.580000
449.215637	154.880000
449.309296	154.440000
449.403015	154.960000
449.496674	154.520000
449.590393	154.500000
449.684052	154.440000
449.777771	155.000000
449.871429	154.060000
449.965149	153.840000
450.058838	154.060000
450.152527	155.020000
450.246216	155.000000
450.339905	155.480000
450.433594	155.640000
450.527283	156.040000
450.620972	155.140000
450.714661	154.920000
450.808350	154.940000
450.902039	155.080000
450.995728	154.680000
451.089417	154.320000
451.183105	154.280000
451.276794	154.860000
451.370514	154.420000
451.464172	153.220000
451.557892	153.460000
451.651550	153.660000
451.745270	152.940000
451.838928	152.740000
451.932648	153.800000
452.026306	154.140000
452.120026	153.720000
452.213684	154.180000
452.307404	154.740000
452.401062	154.680000
452.494781	155.000000
452.588470	155.060000
452.682159	154.760000
452.775848	154.420000
452.869537	154.040000
452.963226	153.640000
453.056915	153.800000
453.150604	153.840000
453.244293	154.440000
453.337982	155.120000
453.431671	155.580000
453.525360	155.940000
453.619049	156.000000
453.712769	155.780000
453.806427	155.340000
453.900146	154.640000
453.993805	154.340000
454.087555	154.580000
454.181213	154.380000
454.274933	153.980000
454.368591	154.180000
454.462311	153.880000
454.555969	153.340000
454.649689	154.300000
454.743347	154.340000
454.837067	155.180000
454.930756	155.460000
455.024445	155.860000
455.118134	155.040000
455.211853	155.540000
455.305542	154.680000
455.399231	154.840000
455.492920	154.600000
455.586609	154.540000
455.680298	154.600000
455.773987	154.400000
455.867676	154.340000
455.961365	154.740000
456.055084	155.020000
456.148773	154.240000
456.242493	154.480000
456.336151	154.640000
456.429871	154.740000
456.523529	154.760000
456.617249	155.300000
456.710907	156.020000
456.804626	155.400000
456.898315	154.740000
456.992035	154.480000
457.085693	154.140000
457.179413	153.040000
457.273102	154.440000
457.366791	154.620000
457.460480	155.140000
457.554199	156.000000
457.647888	156.660000
457.741577	155.800000
457.835266	156.180000
457.928955	156.160000
458.022644	156.100000
458.116364	156.160000
458.210052	156.040000
458.303741	155.980000
458.397461	155.400000
458.491119	154.520000
458.584839	154.320000
458.678528	154.100000
458.772247	153.460000
458.865906	153.460000
458.959625	154.640000
459.053284	154.500000
459.147003	154.320000
459.240692	155.220000
459.334412	155.740000
459.428070	155.020000
459.521790	155.140000
459.615479	155.180000
459.709198	155.560000
459.802887	154.820000
459.896576	154.660000
459.990265	154.660000
460.083954	155.000000
460.177673	153.940000
460.271362	154.500000
460.365051	154.380000
460.458740	154.340000
460.552429	154.000000
460.646149	154.340000
460.739838	153.920000
460.833527	154.580000
460.927246	154.340000
461.020905	154.240000
461.114655	153.980000
461.208313	154.420000
461.302032	153.620000
461.395691	154.080000
461.489441	154.160000
461.583099	154.360000
461.676819	154.160000
461.770477	154.800000
461.864197	154.240000
461.957916	154.120000
462.051605	153.700000
462.145294	154.420000
462.238983	153.840000
462.332703	154.440000
462.426392	155.240000
462.520081	155.240000
462.613770	154.740000
462.707489	155.180000
462.801178	154.820000
462.894867	154.300000
462.988556	154.580000
463.082275	154.320000
463.175964	153.860000
463.269684	154.120000
463.363342	154.100000
463.457092	153.480000
463.550751	153.800000
463.644470	154.200000
463.738129	153.880000
463.831879	154.080000
463.925537	155.040000
464.019257	154.860000
464.112946	154.740000
464.206665	154.540000
464.300323	154.400000
464.394043	153.840000
464.487762	153.920000
464.581451	154.280000
464.675140	154.400000
464.768829	154.540000
464.862549	154.900000
464.956238	154.780000
465.049927	154.840000
465.143646	155.400000
465.237335	155.220000
465.331024	155.660000
465.424713	155.680000
465.518433	155.600000
465.612152	154.860000
465.705811	155.000000
465.799561	154.620000
465.893219	154.360000
465.986938	154.080000
466.080597	154.220000
466.174347	154.460000
466.268005	154.700000
466.361725	154.840000
466.455414	154.880000
466.549133	154.480000
466.642792	154.040000
466.736542	153.400000
466.830231	153.560000
466.923920	153.380000
467.017609	153.900000
467.111328	153.720000
467.205017	153.500000
467.298706	153.460000
467.392426	153.640000
467.486115	153.940000
467.579803	153.860000
467.673523	154.560000
467.767212	154.720000
467.860901	154.500000
467.954651	154.760000
468.048309	155.240000
468.142029	155.100000
468.235718	154.660000
468.329437	154.660000
468.423096	154.480000
468.516846	154.340000
468.610504	153.740000
468.704224	153.760000
468.797913	153.700000
468.891632	153.500000
468.985291	153.540000
469.079010	153.800000
469.172729	153.500000
469.266418	154.420000
469.360107	154.620000
469.453827	154.460000
469.547516	154.740000
469.641205	155.300000
469.734924	154.860000
469.828613	155.140000
469.922302	155.220000
470.016022	154.760000
470.109711	154.580000
470.203430	154.160000
470.297150	153.260000
470.390808	153.800000
470.484558	153.840000
470.578217	154.400000
470.671936	154.820000
470.765625	155.680000
470.859344	155.140000
470.953003	155.640000
471.046753	154.860000
471.140411	154.420000
471.234131	154.420000
471.327820	154.800000
471.421539	154.660000
471.515228	154.720000
471.608948	154.860000
471.702637	154.160000
471.796326	153.960000
471.890045	154.280000
471.983734	154.440000
472.077423	154.160000
472.171143	154.500000
472.264832	154.220000
472.358521	153.840000
472.452240	153.680000
472.545929	154.220000
472.639648	154.480000
472.733337	154.880000
472.827057	154.940000
472.920746	154.920000
473.014465	155.080000
473.108124	154.840000
473.201874	154.940000
473.295532	154.560000
473.389252	154.980000
473.482941	154.940000
473.576660	154.740000
473.670319	154.500000
473.764069	155.060000
473.857727	155.220000
473.951477	155.400000
474.045166	156.140000
474.138855	156.000000
474.232574	155.640000
474.326263	155.560000
474.419952	155.560000
474.513672	155.140000
474.607361	155.080000
474.701050	155.380000
474.794769	155.780000
474.888458	155.680000
474.982178	155.740000
475.075867	155.780000
475.169586	155.860000
475.263275	155.540000
475.356995	155.540000
475.450653	155.160000
475.544403	154.760000
475.638062	155.360000
475.731812	154.720000
475.825470	154.140000
475.919189	154.260000
476.012878	154.920000
476.106598	153.900000
476.200256	154.420000
476.294006	154.600000
476.387695	154.900000
476.481384	154.380000
476.575104	154.780000
476.668793	154.320000
476.762512	154.280000
476.856201	154.460000
476.949890	154.420000
477.043610	153.740000
477.137299	154.060000
477.230988	154.420000
477.324707	154.100000
477.418396	154.820000
477.512146	155.320000
477.605804	155.020000
477.699524	155.020000
477.793213	154.840000
477.886932	154.580000
477.980591	154.040000
478.074341	153.980000
478.167999	153.180000
478.261749	153.340000
478.355408	153.000000
478.449127	153.760000
478.542816	154.840000
478.636536	155.820000
478.730225	155.960000
478.823944	156.340000
478.917633	155.920000
479.011322	155.640000
479.105042	155.320000
479.198730	155.140000
479.292450	154.880000
479.386139	155.320000
479.479828	155.100000
479.573547	155.440000
479.667267	155.420000
479.760925	155.440000
479.854675	155.400000
479.948334	155.700000
480.042084	154.860000
480.135742	155.200000
480.229462	154.760000
480.323151	154.520000
480.416870	153.300000
480.510529	153.940000
480.604279	153.160000
480.697937	154.200000
480.791656	153.980000
480.885345	154.140000
480.979065	154.100000
481.072754	154.720000
481.166473	154.440000
481.260132	154.540000
481.353882	154.900000
481.447540	154.580000
481.541260	154.620000
481.635010	154.080000
481.728668	154.060000
481.822388	153.940000
481.916077	154.180000
482.009796	153.880000
482.103485	154.280000
482.197205	154.440000
482.290863	154.560000
482.384613	154.120000
482.478271	153.860000
482.571991	153.840000
482.665680	153.780000
482.759399	154.600000
482.853058	155.300000
482.946808	155.620000
483.040466	155.500000
483.134216	155.340000
483.227875	154.620000
483.321594	155.040000
483.415283	155.000000
483.509003	154.800000
483.602661	154.620000
483.696411	155.040000
483.790070	154.300000
483.883789	154.180000
483.977478	154.780000
484.071198	155.100000
484.164917	154.540000
484.258606	154.320000
484.352325	154.840000
484.445984	154.780000
484.539734	154.640000
484.633392	154.420000
484.727142	154.860000
484.820801	154.380000
484.914520	154.420000
485.008209	154.740000
485.101929	155.340000
485.195587	154.900000
485.289337	154.880000
485.382996	154.900000
485.476715	154.780000
485.570404	154.920000
485.664124	155.120000
485.757782	155.660000
485.851532	154.920000
485.945190	154.860000
486.038910	154.700000
486.132599	155.060000
486.226318	154.100000
486.319977	154.200000
486.413727	154.640000
486.507446	154.460000
486.601105	153.920000
486.694855	154.340000
486.788513	154.260000
486.882233	153.780000
486.975922	153.660000
487.069641	153.400000
487.163300	153.240000
487.257050	154.320000
487.350708	153.920000
487.444427	153.720000
487.538116	153.680000
487.631836	153.500000
487.725494	152.840000
487.819214	153.220000
487.912903	153.180000
488.006622	153.960000
488.100281	154.380000
488.194031	154.460000
488.287689	154.920000
488.381409	155.540000
488.475098	154.880000
488.568817	154.980000
488.662476	154.560000
488.756226	153.900000
488.849945	153.040000
488.943604	153.520000
489.037354	153.640000
489.131012	153.640000
489.224731	153.720000
489.318390	153.940000
489.412140	154.000000
489.505798	153.560000
489.599518	153.500000
489.693207	153.800000
489.786926	154.180000
489.880585	153.880000
489.974335	154.300000
490.067993	155.860000
490.161713	156.220000
490.255371	156.680000
490.349121	156.800000
490.442780	156.500000
490.536499	155.080000
490.630188	154.800000
490.723907	153.980000
490.817566	154.160000
490.911285	154.460000
491.004974	154.360000
491.098694	153.800000
491.192413	154.660000
491.286102	154.060000
491.379822	153.980000
491.473480	154.580000
491.567200	154.780000
491.660889	153.760000
491.754608	154.080000
491.848267	153.980000
491.941986	153.740000
492.035675	153.700000
492.129395	154.780000
492.223053	154.820000
492.316772	154.800000
492.410461	154.700000
492.504181	154.660000
492.597839	153.840000
492.691559	153.640000
492.785248	153.860000
492.878967	154.160000
492.972626	154.000000
493.066345	154.080000
493.160034	153.760000
493.253754	153.520000
493.347412	152.680000
493.441132	153.200000
493.534882	153.820000
493.628540	154.300000
493.722260	154.440000
493.815918	155.140000
493.909668	155.640000
494.003326	155.720000
494.097046	155.660000
494.190704	155.440000
494.284454	155.600000
494.378113	155.380000
494.471832	154.980000
494.565491	154.860000
494.659210	155.180000
494.752899	154.880000
494.846619	154.340000
494.940277	154.440000
495.033997	154.440000
495.127686	154.080000
495.221405	153.760000
495.315063	154.000000
495.408783	154.060000
495.502441	154.520000
495.596191	154.660000
495.689850	154.580000
495.783569	155.000000
495.877228	154.960000
495.970947	154.500000
496.064697	154.440000
496.158356	155.820000
496.252075	155.260000
496.345734	154.980000
496.439453	155.680000
496.533142	155.960000
496.626862	155.240000
496.720520	155.580000
496.814240	155.660000
496.907898	155.140000
497.001617	155.200000
497.095306	154.460000
497.189026	154.200000
497.282684	154.400000
497.376404	154.800000
497.470062	154.420000
497.563782	155.060000
497.657471	155.040000
497.751190	154.660000
497.844849	154.380000
497.938568	154.940000
498.032227	154.800000
498.125946	154.520000
498.219635	154.560000
498.313354	154.660000
498.407074	153.880000
498.500732	154.200000
498.594452	154.620000
498.688110	154.300000
498.781830	153.840000
498.875519	153.980000
498.969238	153.500000
499.062897	153.420000
499.156616	154.240000
499.250275	154.460000
499.343994	154.140000
499.437653	154.420000
499.531372	154.680000
499.625061	154.940000
499.718781	155.360000
499.812439	156.120000
499.906158	155.860000
499.999817	155.480000
500.093536	154.800000
500.187195	154.580000
500.280914	154.360000
500.374573	154.520000
500.468323	154.500000
500.561981	154.920000
500.655701	154.360000
500.749420	154.060000
500.843079	154.400000
500.936798	154.540000
501.030457	154.420000
501.124176	155.100000
501.217834	155.400000
501.311554	155.060000
501.405212	154.860000
501.498962	154.120000
501.592621	153.840000
501.686340	154.080000
501.779999	154.100000
501.873718	154.260000
501.967377	154.860000
502.061096	155.040000
502.154755	154.580000
502.248474	154.840000
502.342133	155.180000
502.435852	155.260000
502.529510	156.100000
502.623230	156.840000
502.716888	156.440000
502.810608	156.180000
502.904266	156.060000
502.997986	155.060000
503.091705	154.260000
503.185364	154.080000
503.279083	154.260000
503.372772	154.280000
503.466492	154.020000
503.560150	154.480000
503.653870	155.060000
503.747528	154.940000
503.841248	154.700000
503.934906	155.160000
504.028625	154.500000
504.122284	154.600000
504.216003	155.220000
504.309662	155.220000
504.403381	155.500000
504.497040	156.000000
504.590759	155.600000
504.684418	155.300000
504.778137	155.920000
504.871796	155.880000
504.965515	155.560000
505.059174	155.520000
505.152893	154.860000
505.246521	154.080000
505.340240	153.760000
505.433899	153.960000
505.527618	154.160000
505.621338	154.940000
505.714996	155.100000
505.808716	154.780000
505.902374	155.300000
505.996094	155.400000
506.089752	154.780000
506.183472	155.140000
506.277130	155.480000
506.370850	155.200000
506.464508	154.840000
506.558228	155.020000
506.651886	154.640000
506.745605	154.760000
506.839264	154.620000
506.932983	154.780000
507.026611	154.600000
507.120331	155.120000
507.213989	154.420000
507.307709	154.420000
507.401367	154.760000
507.495087	155.740000
507.588745	155.040000
507.682465	156.160000
507.776123	155.960000
507.869843	155.600000
507.963531	155.100000
508.057190	155.860000
508.150909	154.960000
508.244568	155.300000
508.338287	155.120000
508.431946	154.580000
508.525665	154.020000
508.619324	153.900000
508.713013	154.020000
508.806671	154.340000
508.900391	155.400000
508.994049	155.780000
509.087769	155.700000
509.181427	155.540000
509.275146	155.320000
509.368774	154.240000
509.462494	153.980000
509.556152	154.060000
509.649872	154.300000
509.743530	154.380000
509.837250	154.560000
509.930878	154.420000
510.024597	154.280000
510.118256	153.800000
510.211975	153.840000
510.305695	153.800000
510.399353	154.120000
510.493042	155.080000
510.586700	155.480000
510.680420	155.740000
510.774078	155.720000
510.867798	155.900000
510.961426	155.180000
511.055145	154.980000
511.148804	154.840000
511.242523	155.200000
511.336151	155.280000
511.429871	155.660000
511.523529	155.320000
511.617249	155.100000
511.710876	154.680000
511.804596	153.900000
511.898254	154.000000
511.991974	154.500000
512.085632	154.300000
512.179321	154.700000
512.272949	155.400000
512.366699	155.420000
512.460327	155.300000
512.554077	156.380000
512.647766	156.280000
512.741394	155.800000
512.835144	156.180000
512.928772	155.800000
513.022461	155.300000
513.116150	154.820000
513.209839	155.420000
513.303467	154.600000
513.397217	154.600000
513.490845	154.120000
513.584595	154.220000
513.678223	153.360000
513.771912	153.120000
513.865601	153.520000
513.959290	153.520000
514.052917	153.820000
514.146667	154.920000
514.240295	155.340000
514.333984	155.320000
514.427673	155.280000
514.521362	155.480000
514.614990	154.660000
514.708740	154.620000
514.802368	154.680000
514.896057	154.840000
514.989746	155.140000
515.083435	155.200000
515.177124	155.420000
515.270752	155.200000
515.364502	154.980000
515.458130	154.760000
515.551819	154.440000
515.645508	154.260000
515.739197	154.260000
515.832825	154.640000
515.926575	154.120000
516.020203	154.620000
516.113892	155.100000
516.207520	154.980000
516.301270	155.040000
516.394897	155.260000
516.488586	155.620000
516.582275	155.500000
516.675964	155.060000
516.769592	154.820000
516.863281	155.440000
516.956970	155.680000
517.050659	155.260000
517.144287	155.800000
517.238037	156.000000
517.331665	155.160000
517.425354	154.420000
517.519043	154.440000
517.612732	154.700000
517.706421	154.660000
517.800049	154.740000
517.893738	154.800000
517.987427	154.960000
518.081116	154.620000
518.174744	154.120000
518.268433	154.560000
518.362122	155.300000
518.455811	155.260000
518.549438	155.720000
518.643127	156.680000
518.736816	156.420000
518.830505	155.480000
518.924133	155.260000
519.017822	155.280000
519.111511	154.920000
519.205200	155.460000
519.298828	155.600000
519.392517	155.520000
519.486206	155.560000
519.579895	155.780000
519.673523	155.080000
519.767212	155.400000
519.860901	155.960000
519.954590	155.500000
520.048279	154.580000
520.141907	154.760000
520.235596	155.380000
520.329224	155.140000
520.422974	155.240000
520.516602	155.340000
520.610291	154.780000
520.703918	154.340000
520.797607	154.020000
520.891296	153.920000
520.984985	154.340000
521.078613	155.420000
521.172302	154.960000
521.265930	155.880000
521.359680	156.620000
521.453308	156.540000
521.546997	155.880000
521.640625	155.980000
521.734314	155.280000
521.827942	154.720000
521.921692	155.020000
522.015320	155.040000
522.109009	154.860000
522.202698	154.900000
522.296326	154.920000
522.390015	155.140000
522.483704	155.280000
522.577393	155.280000
522.671021	154.920000
522.764709	154.360000
522.858337	154.360000
522.952026	154.480000
523.045654	154.820000
523.139404	155.680000
523.233032	156.140000
523.326721	155.860000
523.420349	155.720000
523.514038	155.540000
523.607666	155.600000
523.701355	155.160000
523.795044	154.860000
523.888733	155.100000
523.982361	155.060000
524.076050	154.580000
524.169678	155.380000
524.263367	155.140000
524.356995	154.340000
524.450684	154.160000
524.544373	153.900000
524.638062	153.580000
524.731750	154.200000
524.825378	154.600000
524.919067	154.480000
525.012695	154.620000
525.106384	154.320000
525.200012	153.820000
525.293701	153.660000
525.387329	153.980000
525.481018	154.440000
525.574646	154.800000
525.668396	155.120000
525.762024	155.480000
525.855713	155.600000
525.949341	154.880000
526.043030	154.980000
526.136658	154.700000
526.230347	154.240000
526.323975	153.820000
526.417664	153.700000
526.511292	153.500000
526.604980	153.560000
526.698608	153.840000
526.792297	154.120000
526.885925	154.660000
526.979614	154.600000
527.073303	154.700000
527.166931	154.520000
527.260620	154.420000
527.354309	154.840000
527.447998	154.780000
527.541626	154.620000
527.635315	154.740000
527.728943	155.340000
527.822632	155.120000
527.916260	155.200000
528.009949	155.520000
528.103577	155.400000
528.197266	154.720000
528.290894	154.680000
528.384583	154.560000
528.478210	154.280000
528.571899	154.660000
528.665527	154.960000
528.759216	154.800000
528.852844	155.300000
528.946533	155.200000
529.040161	154.940000
529.133850	154.640000
529.227478	154.900000
529.321167	155.000000
529.414856	155.640000
529.508484	156.200000
529.602173	155.840000
529.695801	155.480000
529.789490	155.000000
529.883057	154.400000
529.976746	154.200000
530.070374	154.920000
530.164062	154.980000
530.257690	155.440000
530.351379	155.640000
530.445007	155.320000
530.538696	154.580000
530.632324	154.880000
530.726013	154.540000
530.819641	154.660000
530.913330	154.800000
531.006958	155.180000
531.100647	155.140000
531.194275	155.180000
531.287964	154.760000
531.381592	154.620000
531.475220	154.760000
531.568848	154.580000
531.662537	154.200000
531.756226	154.920000
531.849854	154.940000
531.943542	154.900000
532.037170	154.260000
532.130859	154.920000
532.224487	154.320000
532.318176	153.860000
532.411804	154.280000
532.505432	154.720000
532.599060	154.580000
532.692749	154.740000
532.786377	155.360000
532.880066	154.620000
532.973694	154.280000
533.067383	154.060000
533.161011	153.880000
533.254639	154.120000
533.348267	153.920000
533.441956	154.580000
533.535583	154.460000
533.629272	154.700000
533.722900	153.800000
533.816589	154.220000
533.910156	154.380000
534.003845	154.200000
534.097534	154.460000
534.191162	155.540000
534.284851	155.880000
534.378479	155.280000
534.472107	155.140000
534.565735	154.920000
534.659424	154.600000
534.753052	154.280000
534.846741	154.040000
534.940369	154.960000
535.033997	154.900000
535.127625	154.720000
535.221313	155.480000
535.314941	155.640000
535.408630	154.740000
535.502197	154.980000
535.595886	154.960000
535.689514	154.060000
535.783203	154.560000
535.876831	155.280000
535.970459	155.420000
536.064087	154.980000
536.157776	155.260000
536.251404	155.280000
536.345093	154.960000
536.438721	154.720000
536.532349	155.280000
536.626038	155.180000
536.719666	155.020000
536.813293	154.760000
536.906921	154.420000
537.000610	154.580000
537.094238	154.220000
537.187866	154.220000
537.281494	154.200000
537.375183	154.580000
537.468811	154.140000
537.562439	154.560000
537.656067	154.560000
537.749756	154.660000
537.843384	155.120000
537.937012	155.420000
538.030640	154.980000
538.124329	154.880000
538.217896	155.360000
538.311584	155.220000
538.405212	155.020000
538.498901	155.320000
538.592468	156.020000
538.686157	155.500000
538.779785	154.700000
538.873413	154.380000
538.967102	154.320000
539.060730	153.620000
539.154358	153.900000
539.247986	154.360000
539.341675	154.620000
539.435242	154.880000
539.528931	154.980000
539.622559	154.480000
539.716187	154.960000
539.809814	154.980000
539.903503	154.620000
539.997070	154.480000
540.090759	154.860000
540.184387	154.400000
540.278015	154.920000
540.371643	155.320000
540.465332	155.320000
540.558899	155.180000
540.652588	155.080000
540.746216	154.560000
540.839844	154.960000
540.933472	155.020000
541.027100	155.120000
541.120728	155.440000
541.214417	156.020000
541.308044	156.180000
541.401672	156.380000
541.495300	156.180000
541.588928	156.100000
541.682617	155.240000
541.776184	154.520000
541.869873	154.460000
541.963440	154.700000
542.057129	154.440000
542.150757	154.980000
542.244385	154.480000
542.338013	154.020000
542.431641	153.820000
542.525269	153.820000
542.618958	154.260000
542.712524	155.020000
542.806213	155.380000
542.899780	155.540000
542.993469	155.300000
543.087036	154.440000
543.180725	154.000000
543.274292	154.400000
543.367981	154.580000
543.461548	155.120000
543.555237	155.400000
543.648926	155.840000
543.742493	156.160000
543.836182	156.040000
543.929749	155.820000
544.023437	155.600000
544.117004	155.580000
544.210693	155.160000
544.304260	155.060000
544.397949	154.740000
544.491516	155.240000
544.585205	154.960000
544.678772	154.460000
544.772461	154.940000
544.866028	155.000000
544.959717	154.960000
545.053284	155.000000
545.146973	155.360000
545.240540	155.340000
545.334229	155.880000
545.427795	156.060000
545.521423	156.140000
545.615051	156.080000
545.708679	156.380000
545.802307	156.240000
545.895935	156.340000
545.989624	157.280000
546.083191	157.060000
546.176880	156.520000
546.270447	155.960000
546.364136	156.220000
546.457703	154.900000
546.551331	155.100000
546.644958	155.480000
546.738586	156.260000
546.832214	155.580000
546.925842	155.680000
547.019409	155.660000
547.113098	155.040000
547.206665	154.380000
547.300354	154.160000
547.393921	155.040000
547.487549	155.540000
547.581177	155.280000
547.674805	155.240000
547.768433	155.120000
547.862061	154.760000
547.955627	154.000000
548.049316	154.920000
548.142883	155.460000
548.236572	156.120000
548.330139	156.160000
548.423767	156.100000
548.517456	155.820000
548.611023	155.960000
548.704651	155.160000
548.798279	155.060000
548.891907	155.740000
548.985474	155.540000
549.079163	155.560000
549.172729	155.520000
549.266357	154.840000
549.359985	154.580000
549.453613	153.880000
549.547180	153.240000
549.640869	153.880000
549.734436	154.080000
549.828064	154.240000
549.921631	154.560000
550.015320	154.500000
550.108887	154.740000
550.202515	155.100000
550.296143	154.500000
550.389771	154.720000
550.483337	154.960000
550.576965	154.540000
550.670593	155.000000
550.764221	155.340000
550.857849	155.100000
550.951477	154.480000
551.045105	154.420000
551.138672	153.860000
551.232300	153.660000
551.325928	154.120000
551.419556	154.800000
551.513123	154.440000
551.606750	154.180000
551.700378	154.540000
551.794006	154.180000
551.887573	154.140000
551.981201	155.060000
552.074768	155.280000
552.168457	154.660000
552.262024	155.820000
552.355652	155.720000
552.449219	155.860000
552.542847	156.340000
552.636475	156.280000
552.730103	155.240000
552.823669	155.120000
552.917297	154.320000
553.010864	153.680000
553.104553	154.260000
553.198181	154.120000
553.291748	154.560000
553.385376	154.920000
553.478943	155.060000
553.572571	154.860000
553.666199	155.140000
553.759827	154.940000
553.853394	154.600000
553.947021	154.760000
554.040588	154.980000
554.134216	155.080000
554.227783	155.720000
554.321411	156.200000
554.415039	155.400000
554.508667	155.220000
554.602234	155.560000
554.695862	154.820000
554.789429	154.540000
554.883057	155.180000
554.976624	154.820000
555.070251	154.380000
555.163818	154.020000
555.257507	153.960000
555.351074	154.080000
555.444702	155.400000
555.538330	154.660000
555.631897	155.560000
555.725525	155.680000
555.819092	155.440000
555.912720	154.060000
556.006287	155.140000
556.099915	154.500000
556.193481	154.600000
556.287109	154.820000
556.380676	155.140000
556.474304	155.140000
556.567871	155.640000
556.661499	155.120000
556.755066	155.020000
556.848694	155.320000
556.942261	155.020000
557.035889	155.080000
557.129517	155.860000
557.223145	156.300000
557.316711	156.160000
557.410339	156.160000
557.503906	155.700000
557.597473	155.460000
557.691040	155.280000
557.784668	155.160000
557.878296	155.260000
557.971863	155.560000
558.065491	155.840000
558.159058	155.400000
558.252686	156.120000
558.346252	156.720000
558.439880	156.240000
558.533447	155.780000
558.627075	155.880000
558.720642	154.980000
558.814270	154.640000
558.907837	155.020000
559.001465	154.560000
559.095032	155.020000
559.188660	155.480000
559.282227	154.760000
559.375854	155.020000
559.469360	155.300000
559.562988	155.720000
559.656555	155.580000
559.750183	155.960000
559.843750	155.960000
559.937378	155.860000
560.030945	155.240000
560.124573	0.000000
560.218140	0.000000
560.311707	0.000000
560.405334	0.000000
560.498901	0.000000
560.592529	0.000000
560.686096	0.000000
560.779724	0.000000
560.873291	0.000000
560.966858	0.000000
561.060425	0.000000
561.154053	0.000000
561.247620	0.000000
561.341248	0.000000
561.434814	0.000000
561.528381	0.000000
561.621948	0.000000
561.715576	0.000000
561.809143	0.000000
561.902771	0.000000
561.996277	0.000000
562.089905	0.000000
562.183472	0.000000
562.277100	0.000000
