Model Number: SPM-002-B   
Serial Number: 70087108
Firmware Version: 004.15.4
Exposure Time: 100000.000000us
Data Taken on: 15-01-2021 17:48:25.415
Wavelength	Amplitude
221.570786	0.000000
221.663406	0.000000
221.756027	0.000000
221.848648	0.000000
221.941269	0.000000
222.033905	0.000000
222.126526	0.000000
222.219162	0.000000
222.311798	0.000000
222.404419	0.000000
222.497055	0.000000
222.589676	0.000000
222.682312	0.000000
222.774933	0.000000
222.867569	0.000000
222.960205	0.000000
223.052841	0.000000
223.145462	0.000000
223.238098	0.000000
223.330734	0.000000
223.423386	0.000000
223.516022	0.000000
223.608658	0.000000
223.701309	0.000000
223.793945	0.000000
223.886581	0.000000
223.979218	0.000000
224.071869	0.000000
224.164505	0.000000
224.257156	0.000000
224.349792	0.000000
224.442444	0.000000
224.535095	0.000000
224.627747	0.000000
224.720398	0.000000
224.813034	0.000000
224.905685	0.000000
224.998337	154.680000
225.090988	154.220000
225.183640	154.140000
225.276291	153.940000
225.368942	154.520000
225.461594	154.740000
225.554245	155.200000
225.646912	155.000000
225.739578	155.580000
225.832230	155.960000
225.924896	155.280000
226.017548	155.460000
226.110199	156.340000
226.202866	155.700000
226.295532	155.500000
226.388184	155.400000
226.480850	154.820000
226.573517	154.320000
226.666168	154.480000
226.758835	154.540000
226.851501	155.340000
226.944183	155.520000
227.036850	155.240000
227.129517	155.440000
227.222183	155.200000
227.314850	155.140000
227.407516	155.320000
227.500198	156.120000
227.592865	155.760000
227.685532	155.600000
227.778214	155.140000
227.870880	155.600000
227.963562	155.800000
228.056229	156.320000
228.148926	156.480000
228.241592	157.440000
228.334274	156.660000
228.426956	156.020000
228.519638	155.980000
228.612305	155.600000
228.704987	155.060000
228.797668	155.080000
228.890350	155.040000
228.983032	154.300000
229.075714	155.040000
229.168396	154.920000
229.261108	154.700000
229.353790	154.580000
229.446472	154.820000
229.539169	154.580000
229.631851	154.140000
229.724533	154.500000
229.817230	154.740000
229.909912	155.760000
230.002609	155.460000
230.095306	155.440000
230.187988	155.640000
230.280685	155.640000
230.373383	154.500000
230.466095	154.480000
230.558792	154.920000
230.651474	154.300000
230.744171	154.060000
230.836868	153.960000
230.929581	154.140000
231.022278	154.100000
231.114975	154.560000
231.207672	154.360000
231.300369	154.960000
231.393082	154.960000
231.485779	154.920000
231.578506	154.780000
231.671204	155.120000
231.763916	155.220000
231.856613	155.000000
231.949326	155.220000
232.042023	155.340000
232.134735	155.240000
232.227448	154.540000
232.320160	155.040000
232.412872	154.820000
232.505585	155.740000
232.598297	156.180000
232.691010	156.300000
232.783722	155.860000
232.876450	156.400000
232.969162	155.340000
233.061874	154.740000
233.154587	154.400000
233.247314	154.920000
233.340027	154.340000
233.432739	155.100000
233.525467	155.080000
233.618179	155.800000
233.710907	155.300000
233.803635	155.820000
233.896347	155.480000
233.989090	156.160000
234.081818	156.040000
234.174545	156.400000
234.267258	155.820000
234.359985	155.820000
234.452713	155.320000
234.545441	155.040000
234.638168	154.500000
234.730896	154.920000
234.823639	154.740000
234.916367	155.180000
235.009094	155.600000
235.101822	155.980000
235.194580	155.560000
235.287308	155.840000
235.380051	155.120000
235.472778	155.220000
235.565521	155.440000
235.658249	155.600000
235.750992	155.460000
235.843719	155.560000
235.936462	155.660000
236.029205	155.200000
236.121948	154.740000
236.214691	155.180000
236.307449	156.160000
236.400192	155.320000
236.492935	155.200000
236.585678	155.720000
236.678421	155.140000
236.771164	154.660000
236.863907	155.680000
236.956665	156.220000
237.049408	157.960000
237.142151	157.540000
237.234909	158.300000
237.327652	158.120000
237.420410	157.780000
237.513153	156.360000
237.605927	156.560000
237.698669	155.560000
237.791428	154.860000
237.884186	155.260000
237.976944	154.820000
238.069702	155.100000
238.162445	154.920000
238.255203	154.980000
238.347961	155.300000
238.440720	155.500000
238.533478	155.660000
238.626266	155.700000
238.719025	156.180000
238.811783	155.540000
238.904541	155.080000
238.997314	154.560000
239.090073	154.280000
239.182831	154.860000
239.275604	155.760000
239.368362	155.900000
239.461136	156.240000
239.553909	156.160000
239.646667	155.400000
239.739441	154.600000
239.832214	154.840000
239.925003	155.020000
240.017761	156.020000
240.110535	156.620000
240.203308	156.260000
240.296082	156.080000
240.388855	155.780000
240.481628	155.720000
240.574417	155.600000
240.667191	155.700000
240.759964	155.620000
240.852737	155.680000
240.945526	154.820000
241.038315	154.500000
241.131088	154.900000
241.223877	155.080000
241.316650	154.700000
241.409439	155.140000
241.502228	154.900000
241.595001	155.320000
241.687790	155.320000
241.780579	155.600000
241.873367	155.740000
241.966141	155.860000
242.058929	154.900000
242.151718	155.180000
242.244507	155.600000
242.337311	154.720000
242.430099	155.580000
242.522903	155.940000
242.615692	155.200000
242.708481	155.020000
242.801270	156.040000
242.894073	155.220000
242.986862	155.240000
243.079651	156.140000
243.172455	155.760000
243.265244	155.640000
243.358063	155.260000
243.450867	155.540000
243.543655	155.400000
243.636459	155.520000
243.729263	155.680000
243.822067	155.980000
243.914856	156.160000
244.007660	155.920000
244.100464	155.920000
244.193268	155.300000
244.286072	155.280000
244.378876	154.720000
244.471680	154.560000
244.564499	154.700000
244.657318	155.240000
244.750122	155.140000
244.842926	154.760000
244.935745	155.320000
245.028549	155.040000
245.121368	154.940000
245.214172	155.180000
245.306992	155.780000
245.399796	155.060000
245.492615	155.360000
245.585434	155.040000
245.678253	155.040000
245.771072	154.960000
245.863892	155.520000
245.956711	155.620000
246.049530	155.460000
246.142349	155.060000
246.235168	154.980000
246.327988	155.320000
246.420807	155.060000
246.513626	155.200000
246.606445	155.240000
246.699280	155.360000
246.792099	154.880000
246.884918	154.500000
246.977753	154.280000
247.070587	154.280000
247.163422	154.280000
247.256241	154.280000
247.349075	155.100000
247.441895	155.440000
247.534729	155.520000
247.627563	155.500000
247.720383	156.140000
247.813217	156.000000
247.906052	155.640000
247.998886	155.640000
248.091736	155.580000
248.184570	154.880000
248.277405	154.860000
248.370239	156.020000
248.463074	157.320000
248.555908	157.720000
248.648743	157.540000
248.741592	157.560000
248.834427	156.580000
248.927261	155.180000
249.020111	155.260000
249.112946	155.940000
249.205795	155.220000
249.298630	155.640000
249.391495	155.620000
249.484344	155.040000
249.577179	154.600000
249.670029	155.220000
249.762878	155.460000
249.855728	155.960000
249.948563	156.280000
250.041412	156.080000
250.134262	156.180000
250.227112	156.180000
250.319962	156.120000
250.412827	156.040000
250.505692	155.560000
250.598541	155.580000
250.691391	155.080000
250.784241	154.980000
250.877106	155.300000
250.969955	155.420000
251.062805	155.820000
251.155670	156.440000
251.248520	156.300000
251.341385	156.200000
251.434235	156.460000
251.527100	155.920000
251.619965	155.400000
251.712814	156.100000
251.805695	156.060000
251.898560	156.480000
251.991425	156.900000
252.084290	157.200000
252.177155	156.460000
252.270020	156.160000
252.362885	155.920000
252.455750	155.580000
252.548615	155.560000
252.641479	155.320000
252.734360	155.140000
252.827240	155.000000
252.920105	155.220000
253.012970	154.780000
253.105850	155.080000
253.198715	155.100000
253.291595	155.080000
253.384460	154.620000
253.477341	154.680000
253.570221	154.960000
253.663086	154.780000
253.755966	155.760000
253.848846	155.760000
253.941727	156.180000
254.034592	156.000000
254.127472	155.680000
254.220367	155.200000
254.313248	155.640000
254.406128	154.760000
254.499008	155.000000
254.591904	156.300000
254.684784	156.600000
254.777664	156.360000
254.870544	156.360000
254.963440	156.180000
255.056335	155.760000
255.149216	155.240000
255.242111	155.680000
255.334991	156.260000
255.427887	156.160000
255.520767	156.080000
255.613663	156.520000
255.706558	155.880000
255.799438	155.620000
255.892334	155.580000
255.985229	155.160000
256.078125	154.740000
256.171021	154.660000
256.263916	155.000000
256.356812	155.180000
256.449707	155.640000
256.542603	155.440000
256.635498	156.080000
256.728394	156.020000
256.821289	155.620000
256.914215	155.900000
257.007080	156.360000
257.100006	156.340000
257.192932	156.680000
257.285828	157.120000
257.378723	156.740000
257.471619	156.240000
257.564545	155.620000
257.657440	155.480000
257.750336	155.880000
257.843262	155.660000
257.936157	156.840000
258.029053	157.540000
258.121979	157.620000
258.214874	157.040000
258.307800	156.820000
258.400696	155.740000
258.493622	155.460000
258.586517	154.460000
258.679443	154.760000
258.772339	154.760000
258.865265	154.600000
258.958160	154.180000
259.051086	155.260000
259.144012	155.020000
259.236938	156.000000
259.329834	156.440000
259.422791	156.500000
259.515717	155.620000
259.608612	155.580000
259.701538	155.000000
259.794464	154.740000
259.887390	154.700000
259.980316	155.100000
260.073212	154.840000
260.166138	153.900000
260.259064	154.180000
260.351990	154.580000
260.444916	154.580000
260.537842	155.020000
260.630768	156.220000
260.723694	156.200000
260.816620	156.220000
260.909546	156.080000
261.002472	155.640000
261.095398	154.820000
261.188354	154.360000
261.281281	153.860000
261.374207	154.020000
261.467133	154.860000
261.560089	155.480000
261.653015	155.740000
261.745972	156.620000
261.838867	157.200000
261.931824	157.140000
262.024780	156.840000
262.117706	156.940000
262.210663	156.860000
262.303589	156.340000
262.396515	156.060000
262.489471	156.620000
262.582397	156.760000
262.675354	156.460000
262.768280	156.500000
262.861237	156.780000
262.954163	156.600000
263.047119	156.520000
263.140045	155.920000
263.233002	155.840000
263.325958	155.500000
263.418884	154.940000
263.511841	154.900000
263.604797	155.060000
263.697723	154.960000
263.790680	154.720000
263.883636	155.640000
263.976593	155.420000
264.069550	155.580000
264.162476	155.500000
264.255463	155.580000
264.348419	155.040000
264.441376	155.400000
264.534332	154.820000
264.627289	154.960000
264.720245	155.620000
264.813202	155.080000
264.906158	155.120000
264.999115	155.860000
265.092072	156.020000
265.185028	156.060000
265.277985	156.720000
265.370941	156.400000
265.463898	155.880000
265.556854	155.760000
265.649811	154.960000
265.742798	154.680000
265.835754	154.680000
265.928711	155.500000
266.021667	155.560000
266.114655	155.900000
266.207611	156.460000
266.300568	155.960000
266.393585	155.160000
266.486511	155.280000
266.579498	154.680000
266.672485	154.340000
266.765442	154.800000
266.858429	155.680000
266.951385	155.180000
267.044342	155.320000
267.137329	155.220000
267.230316	155.320000
267.323273	154.620000
267.416260	155.400000
267.509216	155.380000
267.602203	155.420000
267.695160	155.680000
267.788147	155.880000
267.881134	155.440000
267.974091	155.600000
268.067078	155.240000
268.160065	155.100000
268.253052	154.800000
268.346008	154.720000
268.438995	154.800000
268.531982	155.300000
268.624969	155.100000
268.717987	155.840000
268.810944	155.580000
268.903961	155.400000
268.996948	154.960000
269.089905	155.560000
269.182892	155.440000
269.275879	156.040000
269.368866	155.800000
269.461853	155.900000
269.554871	155.320000
269.647858	155.180000
269.740845	155.460000
269.833832	156.020000
269.926819	155.800000
270.019806	156.000000
270.112793	155.660000
270.205811	155.580000
270.298798	155.380000
270.391785	156.280000
270.484772	155.980000
270.577789	156.000000
270.670776	155.380000
270.763763	155.260000
270.856750	154.960000
270.949768	154.820000
271.042786	155.180000
271.135773	155.340000
271.228790	155.920000
271.321808	155.320000
271.414795	155.000000
271.507782	154.500000
271.600800	154.360000
271.693817	154.100000
271.786804	154.940000
271.879822	155.420000
271.972809	155.300000
272.065826	155.620000
272.158844	155.320000
272.251831	155.600000
272.344849	155.660000
272.437866	155.620000
272.530853	155.600000
272.623871	155.640000
272.716888	154.240000
272.809906	154.540000
272.902893	154.540000
272.995911	154.120000
273.088928	154.060000
273.181946	154.740000
273.274963	154.260000
273.367981	154.640000
273.460999	154.800000
273.554047	155.440000
273.647003	156.160000
273.740051	156.420000
273.833069	156.640000
273.926086	156.880000
274.019135	156.500000
274.112152	155.720000
274.205170	155.760000
274.298187	155.920000
274.391205	155.600000
274.484222	155.840000
274.577240	155.860000
274.670258	155.640000
274.763306	155.280000
274.856323	156.020000
274.949341	155.820000
275.042358	156.140000
275.135406	156.020000
275.228424	156.080000
275.321442	155.480000
275.414490	155.260000
275.507507	155.520000
275.600525	155.920000
275.693573	155.500000
275.786591	155.440000
275.879669	155.720000
275.972656	155.220000
276.065735	155.060000
276.158752	156.060000
276.251801	156.420000
276.344818	156.600000
276.437866	156.860000
276.530884	156.400000
276.623932	155.440000
276.716980	155.660000
276.809998	155.400000
276.903046	155.240000
276.996094	156.260000
277.089111	156.960000
277.182159	157.220000
277.275208	156.860000
277.368256	156.760000
277.461304	156.360000
277.554321	155.520000
277.647369	155.260000
277.740417	155.640000
277.833466	155.540000
277.926514	155.460000
278.019562	156.300000
278.112610	155.580000
278.205688	155.720000
278.298706	156.000000
278.391785	155.760000
278.484833	155.020000
278.577881	155.000000
278.670929	154.940000
278.763977	154.680000
278.857025	155.060000
278.950073	155.500000
279.043121	155.600000
279.136169	155.300000
279.229248	155.100000
279.322296	155.240000
279.415344	154.680000
279.508392	154.460000
279.601440	154.620000
279.694519	154.660000
279.787567	154.240000
279.880615	154.320000
279.973694	154.280000
280.066742	154.120000
280.159790	154.260000
280.252869	153.900000
280.345917	154.260000
280.438995	154.200000
280.532074	154.320000
280.625122	154.660000
280.718201	155.800000
280.811279	155.760000
280.904327	155.760000
280.997406	156.080000
281.090454	155.800000
281.183533	155.060000
281.276581	155.140000
281.369659	155.040000
281.462738	154.600000
281.555786	155.020000
281.648865	155.200000
281.741943	155.020000
281.835022	156.080000
281.928070	156.240000
282.021149	155.940000
282.114227	155.640000
282.207306	155.440000
282.300385	155.600000
282.393433	155.860000
282.486511	155.820000
282.579590	156.240000
282.672668	156.600000
282.765747	155.640000
282.858856	155.140000
282.951904	155.080000
283.045013	155.320000
283.138062	155.480000
283.231171	155.900000
283.324249	156.620000
283.417328	156.820000
283.510406	156.020000
283.603485	155.660000
283.696564	155.340000
283.789642	155.040000
283.882751	154.720000
283.975830	155.840000
284.068909	156.080000
284.161987	156.960000
284.255066	156.340000
284.348175	156.760000
284.441254	156.060000
284.534332	156.320000
284.627441	155.540000
284.720520	155.620000
284.813599	155.380000
284.906708	155.360000
284.999786	154.480000
285.092896	154.260000
285.185974	155.300000
285.279053	154.960000
285.372192	155.160000
285.465240	156.120000
285.558380	156.240000
285.651459	155.540000
285.744568	156.560000
285.837677	156.220000
285.930756	155.980000
286.023865	155.960000
286.116943	155.600000
286.210052	155.280000
286.303162	155.420000
286.396240	155.120000
286.489349	154.840000
286.582458	155.280000
286.675568	155.000000
286.768646	154.820000
286.861755	155.120000
286.954865	156.120000
287.047974	155.560000
287.141083	155.200000
287.234161	155.200000
287.327271	155.200000
287.420380	155.360000
287.513519	155.400000
287.606598	155.800000
287.699738	155.960000
287.792816	155.860000
287.885956	155.300000
287.979034	155.200000
288.072174	155.120000
288.165283	155.000000
288.258392	155.400000
288.351501	154.820000
288.444611	155.580000
288.537720	156.060000
288.630859	155.980000
288.723969	155.800000
288.817078	156.680000
288.910187	156.380000
289.003296	155.460000
289.096436	155.180000
289.189545	154.680000
289.282654	154.060000
289.375763	154.560000
289.468903	155.360000
289.562012	155.940000
289.655121	156.140000
289.748260	156.400000
289.841400	156.520000
289.934509	156.120000
290.027649	156.040000
290.120728	156.180000
290.213898	156.300000
290.306976	155.700000
290.400146	155.580000
290.493256	155.100000
290.586395	155.040000
290.679535	155.180000
290.772644	155.060000
290.865784	154.320000
290.958893	154.320000
291.052032	154.200000
291.145172	153.960000
291.238281	153.660000
291.331421	154.120000
291.424561	155.060000
291.517670	154.980000
291.610809	155.100000
291.703949	155.440000
291.797089	156.080000
291.890228	155.340000
291.983337	155.260000
292.076477	154.760000
292.169617	154.960000
292.262756	154.620000
292.355927	154.560000
292.449036	154.580000
292.542206	154.860000
292.635315	154.740000
292.728485	154.960000
292.821625	154.680000
292.914764	155.960000
293.007904	155.920000
293.101044	156.180000
293.194183	156.140000
293.287323	156.460000
293.380463	155.500000
293.473602	155.780000
293.566742	155.700000
293.659882	156.120000
293.753021	156.320000
293.846191	156.020000
293.939331	155.500000
294.032471	155.100000
294.125610	154.660000
294.218781	154.920000
294.311920	155.420000
294.405060	155.780000
294.498230	156.060000
294.591370	156.080000
294.684540	155.360000
294.777679	154.780000
294.870850	155.040000
294.963959	155.020000
295.057159	154.760000
295.150299	155.380000
295.243469	155.580000
295.336609	155.020000
295.429779	154.840000
295.522919	155.360000
295.616089	155.520000
295.709229	156.120000
295.802399	156.360000
295.895569	156.300000
295.988708	155.920000
296.081879	155.920000
296.175018	155.320000
296.268188	155.160000
296.361359	155.800000
296.454529	155.920000
296.547668	155.440000
296.640839	155.560000
296.734009	155.480000
296.827179	155.140000
296.920319	155.260000
297.013519	155.180000
297.106659	155.320000
297.199860	155.340000
297.292999	155.540000
297.386200	155.140000
297.479309	155.280000
297.572510	154.720000
297.665680	154.700000
297.758850	154.660000
297.852020	154.800000
297.945190	154.480000
298.038361	154.680000
298.131531	155.620000
298.224701	155.180000
298.317871	154.800000
298.411072	154.560000
298.504242	154.720000
298.597412	153.880000
298.690582	154.340000
298.783752	154.660000
298.876923	155.720000
298.970093	155.620000
299.063293	156.520000
299.156464	156.480000
299.249634	157.080000
299.342834	156.860000
299.436005	157.200000
299.529205	156.240000
299.622345	156.360000
299.715576	155.260000
299.808716	154.880000
299.901917	154.780000
299.995117	155.160000
300.088287	155.360000
300.181488	155.500000
300.274658	155.160000
300.367828	155.160000
300.461029	154.960000
300.554199	155.080000
300.647400	155.340000
300.740601	155.940000
300.833771	155.480000
300.926971	155.920000
301.020142	155.140000
301.113342	155.380000
301.206512	155.320000
301.299713	155.980000
301.392914	155.880000
301.486084	156.520000
301.579285	156.240000
301.672516	156.880000
301.765686	156.300000
301.858887	155.800000
301.952057	155.440000
302.045288	155.580000
302.138458	155.040000
302.231659	155.180000
302.324860	155.700000
302.418060	155.460000
302.511261	155.280000
302.604462	155.340000
302.697662	155.080000
302.790863	154.520000
302.884064	154.560000
302.977264	154.520000
303.070465	154.840000
303.163666	156.020000
303.256866	156.760000
303.350067	156.700000
303.443268	156.920000
303.536469	157.080000
303.629669	155.940000
303.722870	155.680000
303.816071	155.360000
303.909271	155.200000
304.002472	154.000000
304.095673	153.840000
304.188934	153.340000
304.282104	154.700000
304.375336	154.860000
304.468506	154.920000
304.561768	155.000000
304.654968	155.500000
304.748169	154.660000
304.841370	154.360000
304.934601	154.780000
305.027802	154.720000
305.121002	154.140000
305.214233	154.460000
305.307434	154.580000
305.400665	155.260000
305.493866	155.300000
305.587097	155.940000
305.680298	155.380000
305.773499	156.000000
305.866730	155.360000
305.959930	155.880000
306.053162	155.880000
306.146393	155.880000
306.239594	155.060000
306.332825	155.000000
306.426025	155.280000
306.519287	155.000000
306.612488	155.240000
306.705719	155.260000
306.798920	155.340000
306.892181	154.440000
306.985352	154.140000
307.078613	153.500000
307.171844	154.000000
307.265045	153.580000
307.358276	153.500000
307.451508	154.020000
307.544739	155.000000
307.637970	154.520000
307.731201	154.780000
307.824402	155.600000
307.917633	155.620000
308.010864	155.500000
308.104095	156.160000
308.197327	156.360000
308.290558	156.280000
308.383789	156.000000
308.477020	155.740000
308.570251	155.000000
308.663483	154.420000
308.756714	154.220000
308.849976	154.020000
308.943176	154.600000
309.036438	154.420000
309.129639	154.460000
309.222900	154.340000
309.316101	154.540000
309.409393	153.940000
309.502625	154.240000
309.595856	154.700000
309.689087	154.800000
309.782318	154.560000
309.875580	154.540000
309.968811	154.620000
310.062042	154.320000
310.155273	154.360000
310.248535	155.140000
310.341766	154.960000
310.434998	154.880000
310.528259	154.800000
310.621490	155.280000
310.714722	154.500000
310.807983	154.620000
310.901215	154.620000
310.994476	154.780000
311.087708	154.200000
311.181000	154.760000
311.274200	154.580000
311.367462	154.840000
311.460693	154.600000
311.553986	155.160000
311.647186	155.200000
311.740479	155.880000
311.833710	155.540000
311.926971	155.660000
312.020203	154.800000
312.113464	154.420000
312.206726	153.720000
312.299957	154.180000
312.393219	154.900000
312.486481	155.320000
312.579712	155.400000
312.672974	155.680000
312.766235	155.400000
312.859497	154.980000
312.952759	154.740000
313.045990	155.400000
313.139252	154.840000
313.232513	155.040000
313.325775	155.020000
313.419037	154.960000
313.512299	154.120000
313.605530	155.020000
313.698822	155.040000
313.792053	155.040000
313.885345	154.940000
313.978577	155.060000
314.071869	154.160000
314.165131	154.240000
314.258392	154.540000
314.351654	154.840000
314.444916	154.560000
314.538177	155.520000
314.631439	155.700000
314.724701	155.380000
314.817993	154.960000
314.911255	155.220000
315.004517	154.700000
315.097778	154.540000
315.191040	154.980000
315.284302	155.780000
315.377594	155.540000
315.470856	155.320000
315.564117	154.600000
315.657379	154.160000
315.750671	153.280000
315.843933	153.680000
315.937195	153.600000
316.030518	153.900000
316.123749	154.080000
316.217041	155.180000
316.310303	155.140000
316.403595	155.620000
316.496857	155.880000
316.590149	156.120000
316.683411	155.580000
316.776703	155.140000
316.869965	155.120000
316.963257	154.740000
317.056519	153.680000
317.149811	153.100000
317.243073	153.280000
317.336365	153.300000
317.429626	153.740000
317.522919	154.660000
317.616180	155.080000
317.709473	154.720000
317.802765	154.620000
317.896027	154.500000
317.989319	154.640000
318.082611	154.360000
318.175873	154.360000
318.269165	154.340000
318.362488	154.220000
318.455750	153.680000
318.549042	154.120000
318.642303	154.940000
318.735626	154.520000
318.828888	154.720000
318.922211	154.560000
319.015472	155.180000
319.108765	154.240000
319.202057	154.100000
319.295349	154.160000
319.388641	154.400000
319.481934	153.820000
319.575226	154.280000
319.668518	154.800000
319.761810	154.800000
319.855103	154.860000
319.948395	154.920000
320.041687	155.080000
320.134979	155.040000
320.228271	154.820000
320.321564	154.740000
320.414856	154.600000
320.508148	154.120000
320.601440	154.000000
320.694763	154.020000
320.788025	154.820000
320.881348	154.900000
320.974640	155.100000
321.067963	154.560000
321.161224	154.780000
321.254547	153.800000
321.347839	154.000000
321.441162	153.900000
321.534454	155.020000
321.627747	154.640000
321.721069	155.400000
321.814362	155.760000
321.907654	155.960000
322.000946	155.320000
322.094269	155.840000
322.187561	155.500000
322.280884	155.600000
322.374176	155.520000
322.467468	156.040000
322.560791	156.220000
322.654083	156.740000
322.747406	156.880000
322.840698	157.300000
322.934021	157.680000
323.027344	157.560000
323.120636	157.120000
323.213959	156.600000
323.307251	155.880000
323.400574	155.160000
323.493866	154.340000
323.587219	154.480000
323.680511	154.720000
323.773834	155.340000
323.867157	155.500000
323.960449	156.060000
324.053772	155.440000
324.147095	155.340000
324.240387	155.720000
324.333710	155.520000
324.427032	155.620000
324.520355	155.760000
324.613647	155.260000
324.706970	154.660000
324.800293	154.740000
324.893616	154.680000
324.986938	155.100000
325.080231	155.020000
325.173553	155.680000
325.266876	156.120000
325.360199	156.120000
325.453522	155.400000
325.546875	155.240000
325.640167	155.020000
325.733521	154.920000
325.826813	155.160000
325.920166	155.380000
326.013489	155.580000
326.106812	154.900000
326.200134	154.180000
326.293457	153.460000
326.386780	153.520000
326.480103	153.160000
326.573425	153.260000
326.666748	153.720000
326.760071	154.500000
326.853424	154.560000
326.946747	154.960000
327.040070	155.840000
327.133392	155.740000
327.226715	154.840000
327.320068	154.520000
327.413391	155.020000
327.506714	153.900000
327.600037	153.780000
327.693390	154.220000
327.786713	154.520000
327.880066	154.200000
327.973358	154.960000
328.066742	155.420000
328.160034	155.680000
328.253418	155.820000
328.346710	155.560000
328.440063	155.020000
328.533417	154.740000
328.626740	154.840000
328.720093	154.760000
328.813416	155.000000
328.906769	154.920000
329.000092	154.840000
329.093445	154.600000
329.186768	154.500000
329.280121	154.980000
329.373444	155.460000
329.466797	155.480000
329.560120	155.500000
329.653473	155.600000
329.746796	154.800000
329.840149	154.640000
329.933502	154.500000
330.026825	154.420000
330.120178	154.080000
330.213562	154.280000
330.306854	154.220000
330.400238	154.480000
330.493561	154.280000
330.586945	154.840000
330.680237	155.220000
330.773621	155.580000
330.866974	155.560000
330.960327	156.160000
331.053680	156.160000
331.147003	156.180000
331.240356	156.160000
331.333710	156.200000
331.427063	156.040000
331.520416	155.540000
331.613770	155.160000
331.707123	155.020000
331.800476	154.760000
331.893829	155.340000
331.987152	155.740000
332.080505	155.680000
332.173859	155.680000
332.267212	155.440000
332.360565	154.400000
332.453918	154.360000
332.547333	154.400000
332.640656	154.120000
332.734039	154.580000
332.827362	154.660000
332.920746	154.860000
333.014069	155.220000
333.107452	155.860000
333.200806	156.060000
333.294159	156.400000
333.387543	155.680000
333.480896	155.060000
333.574249	154.580000
333.667603	154.380000
333.760956	154.480000
333.854340	154.720000
333.947693	154.920000
334.041046	155.060000
334.134430	155.260000
334.227783	154.860000
334.321136	155.120000
334.414520	155.020000
334.507874	154.940000
334.601227	154.740000
334.694611	154.740000
334.787964	154.840000
334.881348	155.060000
334.974701	155.200000
335.068085	154.920000
335.161438	155.480000
335.254822	155.120000
335.348175	155.220000
335.441559	154.800000
335.534943	155.500000
335.628296	155.040000
335.721680	155.160000
335.815033	155.440000
335.908417	155.880000
336.001770	155.600000
336.095154	155.460000
336.188538	155.460000
336.281891	154.500000
336.375275	153.900000
336.468658	153.580000
336.562012	153.860000
336.655396	154.220000
336.748779	155.080000
336.842133	155.520000
336.935516	155.980000
337.028900	155.620000
337.122284	155.080000
337.215637	155.020000
337.309021	154.800000
337.402435	154.220000
337.495789	154.500000
337.589203	154.460000
337.682526	154.160000
337.775940	154.460000
337.869324	154.620000
337.962708	154.220000
338.056091	154.900000
338.149475	154.620000
338.242859	154.500000
338.336243	154.780000
338.429626	155.320000
338.523010	154.860000
338.616394	155.060000
338.709778	154.960000
338.803162	154.920000
338.896545	154.960000
338.989929	154.760000
339.083313	154.860000
339.176697	154.920000
339.270081	154.620000
339.363464	154.640000
339.456848	155.200000
339.550232	154.820000
339.643616	154.480000
339.737030	154.540000
339.830383	154.300000
339.923828	154.060000
340.017181	154.140000
340.110596	154.700000
340.203949	154.560000
340.297363	154.340000
340.390778	154.380000
340.484161	154.700000
340.577545	154.520000
340.670959	154.800000
340.764343	155.040000
340.857727	155.200000
340.951111	154.620000
341.044525	154.760000
341.137909	154.160000
341.231293	154.080000
341.324707	153.460000
341.418091	154.460000
341.511505	154.600000
341.604889	155.220000
341.698303	155.200000
341.791687	155.400000
341.885071	154.680000
341.978485	153.940000
342.071899	154.040000
342.165283	154.180000
342.258698	154.620000
342.352081	155.240000
342.445496	156.120000
342.538879	156.080000
342.632324	155.780000
342.725708	155.780000
342.819122	155.060000
342.912506	154.400000
343.005920	154.140000
343.099335	155.200000
343.192719	154.960000
343.286133	155.220000
343.379547	155.520000
343.472931	155.540000
343.566345	154.560000
343.659760	154.680000
343.753143	154.420000
343.846558	154.200000
343.939972	154.400000
344.033386	155.260000
344.126770	155.040000
344.220184	155.280000
344.313599	155.720000
344.407043	155.780000
344.500427	154.940000
344.593872	155.500000
344.687225	155.380000
344.780670	154.960000
344.874054	154.660000
344.967499	155.120000
345.060913	154.940000
345.154327	155.040000
345.247742	154.760000
345.341156	154.740000
345.434570	154.200000
345.527985	153.920000
345.621399	154.080000
345.714813	154.160000
345.808228	154.480000
345.901642	154.580000
345.995056	154.400000
346.088470	154.400000
346.181885	154.660000
346.275299	154.220000
346.368713	154.180000
346.462128	154.060000
346.555573	154.020000
346.648987	154.420000
346.742401	154.640000
346.835815	155.140000
346.929260	155.300000
347.022644	155.520000
347.116119	155.400000
347.209503	155.700000
347.302948	156.120000
347.396362	156.820000
347.489807	156.640000
347.583221	156.940000
347.676636	156.540000
347.770050	155.740000
347.863495	154.960000
347.956909	154.920000
348.050323	154.200000
348.143768	154.420000
348.237183	154.320000
348.330597	154.880000
348.424042	155.340000
348.517456	155.700000
348.610901	155.700000
348.704315	155.500000
348.797760	154.600000
348.891174	153.800000
348.984619	153.320000
349.078033	153.760000
349.171448	154.640000
349.264923	154.900000
349.358337	155.200000
349.451782	155.560000
349.545197	155.080000
349.638641	154.100000
349.732086	153.800000
349.825500	154.140000
349.918945	153.800000
350.012390	154.180000
350.105804	154.760000
350.199249	155.400000
350.292664	155.520000
350.386108	155.900000
350.479553	156.180000
350.572968	156.180000
350.666412	156.160000
350.759857	155.800000
350.853302	156.320000
350.946716	155.560000
351.040161	155.720000
351.133606	155.560000
351.227081	155.420000
351.320465	155.660000
351.413940	155.720000
351.507355	155.680000
351.600830	155.880000
351.694244	155.640000
351.787720	155.340000
351.881104	155.560000
351.974579	155.200000
352.067993	155.940000
352.161469	156.380000
352.254883	155.540000
352.348358	155.300000
352.441803	155.360000
352.535248	154.360000
352.628693	154.380000
352.722137	154.640000
352.815582	155.120000
352.909027	155.260000
353.002472	155.400000
353.095917	155.340000
353.189362	155.540000
353.282806	155.020000
353.376251	154.900000
353.469696	154.600000
353.563141	155.200000
353.656586	154.880000
353.750061	154.740000
353.843475	154.860000
353.936981	155.520000
354.030396	154.640000
354.123871	154.780000
354.217285	155.380000
354.310760	155.560000
354.404175	155.420000
354.497681	155.300000
354.591095	155.360000
354.684570	154.560000
354.777985	153.980000
354.871490	153.660000
354.964935	154.220000
355.058380	154.240000
355.151855	154.340000
355.245300	155.220000
355.338745	155.560000
355.432220	155.240000
355.525665	154.760000
355.619110	155.080000
355.712585	154.720000
355.806030	154.520000
355.899475	154.300000
355.992950	154.980000
356.086426	155.380000
356.179871	155.220000
356.273346	155.380000
356.366791	155.940000
356.460266	156.040000
356.553711	155.300000
356.647186	155.520000
356.740631	155.280000
356.834106	154.900000
356.927551	154.740000
357.021027	154.980000
357.114471	154.580000
357.207947	154.560000
357.301422	154.780000
357.394867	154.780000
357.488342	155.200000
357.581818	155.580000
357.675262	156.040000
357.768738	155.940000
357.862213	155.440000
357.955658	155.420000
358.049133	155.120000
358.142609	155.140000
358.236053	155.060000
358.329529	155.220000
358.423035	155.120000
358.516449	154.680000
358.609955	155.000000
358.703400	155.800000
358.796906	155.860000
358.890350	155.280000
358.983826	155.840000
359.077271	154.920000
359.170776	154.180000
359.264221	153.900000
359.357727	154.160000
359.451172	154.620000
359.544647	154.680000
359.638123	154.840000
359.731598	155.620000
359.825073	156.180000
359.918549	155.920000
360.012024	155.940000
360.105499	155.180000
360.198975	154.860000
360.292450	154.740000
360.385925	154.660000
360.479401	154.420000
360.572876	155.300000
360.666351	155.700000
360.759857	155.440000
360.853302	155.300000
360.946808	155.240000
361.040253	155.120000
361.133759	154.420000
361.227203	154.460000
361.320709	154.280000
361.414154	154.800000
361.507660	154.860000
361.601105	155.360000
361.694641	155.680000
361.788086	155.600000
361.881592	156.080000
361.975067	155.760000
362.068542	156.040000
362.162018	155.980000
362.255524	155.780000
362.348999	155.280000
362.442474	155.620000
362.535950	155.100000
362.629456	154.940000
362.722931	155.040000
362.816406	155.160000
362.909882	155.600000
363.003387	155.160000
363.096863	155.540000
363.190338	155.740000
363.283875	155.580000
363.377319	155.060000
363.470825	155.940000
363.564301	154.940000
363.657806	155.040000
363.751282	154.480000
363.844788	155.360000
363.938232	154.600000
364.031769	155.820000
364.125214	156.000000
364.218750	157.120000
364.312225	155.600000
364.405731	155.960000
364.499207	155.300000
364.592712	155.000000
364.686188	154.520000
364.779694	155.000000
364.873169	155.180000
364.966675	154.840000
365.060150	154.720000
365.153656	155.100000
365.247131	155.020000
365.340637	155.200000
365.434143	155.920000
365.527618	156.040000
365.621155	155.000000
365.714600	155.200000
365.808136	155.220000
365.901611	154.100000
365.995117	153.860000
366.088593	154.260000
366.182129	153.760000
366.275604	153.540000
366.369110	154.080000
366.462585	154.200000
366.556122	155.100000
366.649567	155.680000
366.743103	155.560000
366.836609	155.280000
366.930115	155.660000
367.023590	155.240000
367.117096	154.860000
367.210602	154.780000
367.304108	155.520000
367.397614	155.820000
367.491119	155.500000
367.584595	155.880000
367.678101	156.400000
367.771606	155.840000
367.865112	155.180000
367.958649	154.740000
368.052124	154.400000
368.145660	154.000000
368.239136	154.840000
368.332672	155.160000
368.426147	155.780000
368.519684	155.600000
368.613159	155.640000
368.706696	154.880000
368.800171	154.880000
368.893707	154.600000
368.987183	154.740000
369.080719	154.680000
369.174225	154.640000
369.267731	154.820000
369.361237	154.900000
369.454742	154.840000
369.548248	155.300000
369.641754	155.040000
369.735260	154.700000
369.828766	153.960000
369.922272	154.860000
370.015808	154.320000
370.109314	154.240000
370.202820	154.080000
370.296356	155.380000
370.389832	154.980000
370.483368	154.440000
370.576874	154.580000
370.670410	154.780000
370.763885	153.920000
370.857422	153.780000
370.950928	154.280000
371.044464	155.140000
371.137939	155.340000
371.231476	155.640000
371.324982	156.060000
371.418518	156.280000
371.512024	155.960000
371.605560	155.480000
371.699066	155.400000
371.792572	154.900000
371.886108	155.140000
371.979614	154.800000
372.073120	155.440000
372.166656	155.580000
372.260162	155.880000
372.353668	155.420000
372.447205	155.140000
372.540710	154.860000
372.634277	154.800000
372.727753	154.580000
372.821320	154.540000
372.914795	154.960000
373.008362	154.900000
373.101837	154.900000
373.195404	154.860000
373.288879	155.020000
373.382446	155.720000
373.475922	155.820000
373.569489	156.500000
373.662964	156.900000
373.756531	156.900000
373.850037	156.520000
373.943573	156.440000
374.037109	155.240000
374.130615	155.280000
374.224152	155.380000
374.317657	155.060000
374.411194	156.000000
374.504730	156.200000
374.598236	155.760000
374.691772	155.540000
374.785309	155.740000
374.878815	154.400000
374.972351	154.760000
375.065887	154.840000
375.159454	155.680000
375.252930	155.720000
375.346497	156.320000
375.440002	156.980000
375.533569	156.740000
375.627045	155.900000
375.720612	155.820000
375.814117	156.040000
375.907684	155.280000
376.001160	155.160000
376.094727	154.820000
376.188232	155.540000
376.281799	155.400000
376.375336	155.640000
376.468872	156.440000
376.562408	156.860000
376.655914	156.220000
376.749451	156.200000
376.842987	156.340000
376.936523	155.820000
377.030060	155.840000
377.123596	156.200000
377.217133	155.560000
377.310669	155.480000
377.404205	155.720000
377.497772	156.220000
377.591278	155.580000
377.684845	156.480000
377.778351	156.640000
377.871918	156.440000
377.965424	155.600000
378.058990	155.600000
378.152496	155.120000
378.246063	155.180000
378.339569	155.580000
378.433136	155.560000
378.526642	155.680000
378.620209	155.600000
378.713745	155.040000
378.807312	154.980000
378.900848	155.200000
378.994385	155.200000
379.087921	154.280000
379.181458	155.000000
379.274994	154.180000
379.368530	154.140000
379.462097	154.600000
379.555634	156.060000
379.649170	155.280000
379.742706	155.680000
379.836273	155.660000
379.929810	155.120000
380.023376	154.440000
380.116882	154.460000
380.210449	154.300000
380.303986	154.060000
380.397552	153.600000
380.491058	154.000000
380.584656	153.740000
380.678162	153.920000
380.771729	154.260000
380.865265	155.220000
380.958832	154.940000
381.052368	155.540000
381.145935	155.940000
381.239471	156.340000
381.333008	155.920000
381.426575	155.840000
381.520111	155.980000
381.613647	156.160000
381.707214	155.960000
381.800751	155.540000
381.894318	156.040000
381.987854	155.360000
382.081421	154.880000
382.174988	154.520000
382.268524	154.520000
382.362091	154.240000
382.455627	154.960000
382.549194	154.880000
382.642731	154.540000
382.736298	154.440000
382.829834	154.420000
382.923401	155.040000
383.016937	155.300000
383.110504	155.880000
383.204041	156.500000
383.297607	156.840000
383.391174	155.680000
383.484741	156.300000
383.578278	155.840000
383.671844	155.000000
383.765411	154.180000
383.858948	154.500000
383.952515	154.020000
384.046051	154.680000
384.139618	155.620000
384.233185	156.180000
384.326721	156.340000
384.420288	156.680000
384.513855	156.600000
384.607422	156.560000
384.700989	156.760000
384.794525	156.560000
384.888123	156.660000
384.981659	156.500000
385.075226	156.080000
385.168762	155.480000
385.262360	155.360000
385.355896	154.300000
385.449463	154.380000
385.542999	154.280000
385.636597	155.160000
385.730164	155.460000
385.823730	155.320000
385.917267	154.900000
386.010834	155.500000
386.104401	155.140000
386.197968	155.220000
386.291534	156.020000
386.385101	155.960000
386.478668	156.040000
386.572235	156.060000
386.665802	155.320000
386.759338	154.600000
386.852905	154.740000
386.946472	154.080000
387.040070	153.960000
387.133606	154.480000
387.227203	154.540000
387.320740	154.960000
387.414337	154.720000
387.507874	154.720000
387.601471	154.700000
387.695007	154.680000
387.788605	154.340000
387.882141	154.900000
387.975739	154.820000
388.069275	154.460000
388.162872	154.920000
388.256439	154.940000
388.350037	154.660000
388.443604	154.400000
388.537170	154.840000
388.630737	155.520000
388.724304	155.600000
388.817871	155.800000
388.911438	155.960000
389.005005	156.340000
389.098602	155.980000
389.192169	155.920000
389.285736	156.340000
389.379333	156.180000
389.472870	155.100000
389.566467	154.780000
389.660034	154.780000
389.753632	153.980000
389.847168	154.740000
389.940765	155.420000
390.034332	155.860000
390.127930	155.440000
390.221466	155.560000
390.315063	155.020000
390.408630	154.160000
390.502228	153.320000
390.595795	153.760000
390.689362	153.720000
390.782959	153.960000
390.876526	154.800000
390.970093	154.920000
391.063690	155.440000
391.157257	155.600000
391.250824	155.780000
391.344421	155.400000
391.437988	155.780000
391.531555	155.400000
391.625153	155.540000
391.718750	155.520000
391.812317	155.580000
391.905914	155.160000
391.999481	155.440000
392.093079	155.560000
392.186615	155.720000
392.280243	155.820000
392.373779	156.140000
392.467407	156.220000
392.560944	156.160000
392.654572	155.600000
392.748108	155.460000
392.841736	155.320000
392.935303	154.860000
393.028900	154.680000
393.122467	154.840000
393.216064	154.680000
393.309631	154.120000
393.403229	154.120000
393.496796	154.100000
393.590393	153.540000
393.683990	153.940000
393.777557	154.720000
393.871155	155.020000
393.964722	155.400000
394.058350	156.180000
394.151917	156.120000
394.245514	155.820000
394.339081	155.900000
394.432678	156.120000
394.526245	156.100000
394.619873	155.580000
394.713409	155.820000
394.807037	155.360000
394.900604	155.280000
394.994202	154.760000
395.087769	155.200000
395.181396	154.520000
395.274994	155.260000
395.368561	154.400000
395.462158	154.420000
395.555756	153.900000
395.649353	154.360000
395.742920	153.940000
395.836517	154.760000
395.930115	154.460000
396.023712	155.020000
396.117279	155.280000
396.210876	154.600000
396.304474	154.780000
396.398071	155.140000
396.491669	155.200000
396.585266	154.780000
396.678833	155.020000
396.772461	154.900000
396.866028	154.680000
396.959656	154.780000
397.053223	155.320000
397.146851	155.180000
397.240417	154.880000
397.334015	155.660000
397.427582	155.520000
397.521210	155.100000
397.614807	155.520000
397.708405	155.900000
397.802002	155.500000
397.895599	155.940000
397.989197	155.980000
398.082794	155.980000
398.176392	156.180000
398.269989	156.420000
398.363586	156.280000
398.457184	157.360000
398.550781	157.880000
398.644379	157.980000
398.737976	158.560000
398.831573	159.940000
398.925201	161.180000
399.018768	164.520000
399.112396	170.320000
399.205963	179.680000
399.299591	194.300000
399.393158	217.480000
399.486786	258.360000
399.580353	332.820000
399.673981	467.560000
399.767578	680.080000
399.861206	959.980000
399.954773	1263.860000
400.048401	1512.060000
400.141998	1635.660000
400.235596	1596.440000
400.329193	1412.840000
400.422791	1136.460000
400.516418	848.640000
400.610016	603.340000
400.703613	428.040000
400.797211	313.880000
400.890808	246.840000
400.984436	209.480000
401.078033	189.200000
401.171631	177.020000
401.265259	171.240000
401.358826	167.920000
401.452484	165.220000
401.546051	163.620000
401.639679	162.220000
401.733246	161.260000
401.826904	160.040000
401.920471	158.840000
402.014099	157.760000
402.107697	157.580000
402.201324	157.080000
402.294891	156.980000
402.388550	157.120000
402.482147	157.300000
402.575745	156.980000
402.669373	156.320000
402.762970	155.940000
402.856567	155.740000
402.950195	155.640000
403.043793	155.680000
403.137390	156.540000
403.231018	155.920000
403.324615	156.540000
403.418243	155.960000
403.511841	156.300000
403.605469	156.300000
403.699066	156.840000
403.792694	156.300000
403.886292	156.540000
403.979919	156.100000
404.073517	155.600000
404.167145	155.800000
404.260712	155.880000
404.354370	155.760000
404.447937	156.380000
404.541595	156.480000
404.635162	156.740000
404.728821	157.260000
404.822418	156.980000
404.916046	156.300000
405.009644	156.540000
405.103271	156.500000
405.196899	155.800000
405.290497	156.140000
405.384125	156.480000
405.477722	155.800000
405.571350	154.980000
405.664948	155.320000
405.758575	154.880000
405.852203	154.260000
405.945801	154.480000
406.039429	154.640000
406.133057	154.260000
406.226654	154.240000
406.320312	154.360000
406.413879	154.500000
406.507538	154.820000
406.601135	154.420000
406.694763	154.940000
406.788361	154.900000
406.882019	154.660000
406.975586	154.980000
407.069244	155.860000
407.162872	155.920000
407.256470	155.960000
407.350098	155.980000
407.443726	155.400000
407.537323	154.740000
407.630951	154.860000
407.724579	154.340000
407.818207	154.760000
407.911804	154.520000
408.005432	154.520000
408.099060	154.560000
408.192688	155.340000
408.286285	154.820000
408.379913	154.700000
408.473572	154.920000
408.567169	154.200000
408.660828	154.220000
408.754395	154.140000
408.848053	154.480000
408.941650	154.640000
409.035309	154.360000
409.128906	154.060000
409.222565	154.340000
409.316132	154.640000
409.409790	154.440000
409.503387	154.540000
409.597046	154.680000
409.690674	154.740000
409.784302	154.540000
409.877930	154.460000
409.971558	155.180000
410.065186	155.060000
410.158783	155.120000
410.252411	154.720000
410.346039	155.220000
410.439667	154.740000
410.533295	155.000000
410.626923	155.020000
410.720551	154.900000
410.814209	155.000000
410.907806	155.000000
411.001465	154.540000
411.095062	154.740000
411.188721	155.200000
411.282318	154.580000
411.375977	154.360000
411.469574	154.740000
411.563232	154.320000
411.656830	154.280000
411.750488	154.120000
411.844086	154.260000
411.937744	154.260000
412.031372	154.040000
412.125000	154.060000
412.218628	154.320000
412.312256	155.000000
412.405884	155.260000
412.499512	155.260000
412.593170	155.620000
412.686798	155.760000
412.780426	154.900000
412.874054	154.920000
412.967682	155.040000
413.061310	155.260000
413.154968	155.200000
413.248566	155.880000
413.342224	155.540000
413.435852	155.640000
413.529510	155.080000
413.623108	154.560000
413.716766	154.280000
413.810364	154.660000
413.904022	154.380000
413.997650	153.960000
414.091309	154.940000
414.184906	154.940000
414.278564	154.460000
414.372192	155.020000
414.465851	155.560000
414.559479	155.240000
414.653107	156.180000
414.746735	155.880000
414.840393	155.820000
414.934021	156.000000
415.027649	155.540000
415.121277	154.940000
415.214935	155.740000
415.308563	155.460000
415.402191	154.940000
415.495850	154.920000
415.589478	154.420000
415.683136	154.100000
415.776733	154.580000
415.870422	155.240000
415.964020	154.780000
416.057678	155.360000
416.151306	155.040000
416.244965	154.520000
416.338562	154.140000
416.432251	155.180000
416.525848	155.380000
416.619507	156.000000
416.713165	156.420000
416.806793	156.520000
416.900421	156.560000
416.994080	155.920000
417.087708	155.800000
417.181366	155.200000
417.274994	154.980000
417.368622	154.960000
417.462280	155.380000
417.555908	154.940000
417.649567	155.060000
417.743195	155.000000
417.836853	154.820000
417.930481	154.820000
418.024170	155.060000
418.117767	155.520000
418.211426	156.000000
418.305054	156.020000
418.398712	155.580000
418.492340	155.720000
418.585999	156.320000
418.679626	156.020000
418.773285	155.840000
418.866913	155.980000
418.960571	156.120000
419.054230	155.500000
419.147858	155.800000
419.241516	155.920000
419.335144	155.840000
419.428802	155.680000
419.522461	155.480000
419.616089	154.880000
419.709747	154.920000
419.803375	155.080000
419.897034	154.740000
419.990662	154.540000
420.084320	155.320000
420.177979	155.620000
420.271606	155.840000
420.365295	156.440000
420.458893	156.740000
420.552582	156.740000
420.646210	156.460000
420.739868	156.100000
420.833496	155.660000
420.927155	155.260000
421.020782	154.660000
421.114471	154.240000
421.208069	154.600000
421.301758	154.980000
421.395386	155.360000
421.489044	155.240000
421.582703	155.400000
421.676361	155.460000
421.769989	154.940000
421.863647	155.180000
421.957306	155.680000
422.050934	156.040000
422.144592	155.780000
422.238251	155.580000
422.331909	155.100000
422.425537	154.660000
422.519196	154.540000
422.612854	154.280000
422.706543	154.240000
422.800140	154.920000
422.893829	154.680000
422.987457	154.300000
423.081146	154.580000
423.174744	155.380000
423.268433	154.580000
423.362061	154.880000
423.455750	155.200000
423.549347	155.240000
423.643036	154.280000
423.736664	155.200000
423.830353	155.360000
423.924011	155.620000
424.017639	155.060000
424.111298	155.400000
424.204956	154.760000
424.298615	155.020000
424.392273	154.800000
424.485931	155.260000
424.579559	155.380000
424.673218	155.560000
424.766876	155.160000
424.860535	154.780000
424.954193	154.640000
425.047882	155.200000
425.141510	155.060000
425.235199	155.080000
425.328796	155.120000
425.422485	154.980000
425.516113	154.160000
425.609802	154.380000
425.703430	154.720000
425.797119	154.880000
425.890747	155.280000
425.984436	155.800000
426.078064	155.720000
426.171753	155.420000
426.265411	155.120000
426.359070	155.180000
426.452728	154.720000
426.546356	154.740000
426.640015	154.540000
426.733673	154.760000
426.827332	154.180000
426.920990	155.060000
427.014648	154.600000
427.108307	154.820000
427.201965	155.700000
427.295624	156.180000
427.389282	155.320000
427.482941	155.720000
427.576630	155.920000
427.670258	154.900000
427.763947	154.920000
427.857574	155.400000
427.951263	155.340000
428.044922	155.020000
428.138611	155.260000
428.232239	156.040000
428.325928	156.140000
428.419556	156.560000
428.513245	156.300000
428.606903	156.460000
428.700562	155.500000
428.794220	154.740000
428.887878	154.160000
428.981537	154.880000
429.075195	154.900000
429.168854	155.260000
429.262512	155.720000
429.356201	156.000000
429.449860	155.600000
429.543518	155.440000
429.637177	155.740000
429.730835	155.820000
429.824493	156.000000
429.918182	156.400000
430.011810	156.300000
430.105530	155.300000
430.199158	155.260000
430.292847	155.100000
430.386475	154.560000
430.480164	154.400000
430.573792	154.420000
430.667511	154.180000
430.761139	154.120000
430.854828	154.840000
430.948456	155.340000
431.042145	156.140000
431.135834	156.020000
431.229492	156.160000
431.323151	156.120000
431.416809	155.660000
431.510468	155.360000
431.604156	155.540000
431.697815	155.420000
431.791473	154.720000
431.885132	154.680000
431.978821	155.320000
432.072479	155.660000
432.166138	156.040000
432.259827	156.180000
432.353485	156.680000
432.447174	156.720000
432.540802	156.380000
432.634491	156.460000
432.728149	157.080000
432.821838	157.160000
432.915466	156.560000
433.009186	156.600000
433.102814	155.660000
433.196503	154.960000
433.290131	154.960000
433.383850	155.060000
433.477509	155.300000
433.571167	156.720000
433.664856	157.500000
433.758514	157.900000
433.852173	158.160000
433.945862	157.900000
434.039520	157.500000
434.133179	156.820000
434.226868	156.600000
434.320526	155.880000
434.414185	156.400000
434.507874	155.840000
434.601562	156.280000
434.695221	155.580000
434.788910	155.920000
434.882538	155.820000
434.976257	155.620000
435.069885	155.420000
435.163574	155.920000
435.257233	155.500000
435.350922	155.440000
435.444580	155.260000
435.538269	155.000000
435.631897	155.440000
435.725616	156.160000
435.819275	156.540000
435.912964	157.340000
436.006622	158.140000
436.100311	157.720000
436.193970	156.820000
436.287628	156.440000
436.381317	155.900000
436.474976	155.280000
436.568665	154.840000
436.662323	155.200000
436.756012	155.180000
436.849670	155.500000
436.943390	155.400000
437.037018	155.300000
437.130737	155.180000
437.224365	154.960000
437.318085	154.960000
437.411713	155.040000
437.505432	155.700000
437.599060	156.420000
437.692780	156.860000
437.786407	156.660000
437.880127	156.780000
437.973755	156.220000
438.067474	155.540000
438.161133	155.560000
438.254822	155.620000
438.348480	155.360000
438.442169	156.080000
438.535828	156.840000
438.629517	156.300000
438.723175	155.840000
438.816864	156.400000
438.910553	155.800000
439.004211	155.060000
439.097900	154.900000
439.191559	155.240000
439.285248	154.400000
439.378906	154.840000
439.472626	154.720000
439.566284	154.680000
439.659973	154.820000
439.753632	154.840000
439.847321	155.000000
439.940979	155.440000
440.034698	155.780000
440.128326	154.960000
440.222046	154.860000
440.315674	153.800000
440.409393	153.760000
440.503082	153.440000
440.596741	154.140000
440.690430	154.360000
440.784088	154.620000
440.877777	154.020000
440.971466	154.120000
441.065125	153.720000
441.158813	153.560000
441.252502	153.840000
441.346161	154.300000
441.439850	154.560000
441.533539	154.600000
441.627197	155.180000
441.720886	154.800000
441.814606	155.040000
441.908234	155.420000
442.001953	155.300000
442.095612	155.060000
442.189301	155.280000
442.282959	155.080000
442.376678	154.060000
442.470306	155.120000
442.564026	154.800000
442.657684	155.240000
442.751404	155.420000
442.845032	156.420000
442.938751	155.440000
443.032440	156.000000
443.126099	155.460000
443.219788	155.760000
443.313477	155.060000
443.407166	155.580000
443.500824	155.360000
443.594513	155.840000
443.688202	155.340000
443.781891	155.260000
443.875549	154.760000
443.969238	154.560000
444.062927	154.200000
444.156647	154.140000
444.250275	154.760000
444.343994	155.040000
444.437653	155.240000
444.531372	155.020000
444.625031	154.920000
444.718719	154.020000
444.812378	153.780000
444.906097	153.380000
444.999756	153.060000
445.093445	153.300000
445.187103	153.940000
445.280823	154.540000
445.374512	154.360000
445.468201	154.800000
445.561859	154.300000
445.655548	154.340000
445.749237	153.820000
445.842926	154.280000
445.936615	154.540000
446.030304	154.740000
446.123962	154.680000
446.217651	154.520000
446.311340	154.620000
446.405029	154.280000
446.498749	154.140000
446.592407	153.820000
446.686096	154.120000
446.779755	154.020000
446.873474	154.200000
446.967133	154.720000
447.060852	154.800000
447.154510	154.660000
447.248230	154.760000
447.341858	154.680000
447.435577	154.000000
447.529236	153.820000
447.622955	153.480000
447.716644	153.380000
447.810333	153.640000
447.904022	154.220000
447.997711	154.240000
448.091400	155.080000
448.185059	155.080000
448.278748	155.180000
448.372437	154.920000
448.466125	155.280000
448.559814	154.820000
448.653503	155.200000
448.747192	155.540000
448.840912	156.100000
448.934570	156.000000
449.028290	156.700000
449.121948	156.440000
449.215637	155.760000
449.309296	155.080000
449.403015	155.440000
449.496674	154.920000
449.590393	154.980000
449.684052	154.840000
449.777771	155.880000
449.871429	155.020000
449.965149	154.660000
450.058838	154.860000
450.152527	155.680000
450.246216	155.140000
450.339905	155.860000
450.433594	155.920000
450.527283	156.240000
450.620972	155.640000
450.714661	155.500000
450.808350	155.240000
450.902039	155.340000
450.995728	154.940000
451.089417	154.600000
451.183105	154.760000
451.276794	155.320000
451.370514	154.820000
451.464172	154.060000
451.557892	154.400000
451.651550	154.320000
451.745270	153.820000
451.838928	153.720000
451.932648	154.180000
452.026306	154.500000
452.120026	154.000000
452.213684	154.340000
452.307404	154.740000
452.401062	154.860000
452.494781	154.600000
452.588470	154.900000
452.682159	154.420000
452.775848	154.500000
452.869537	153.900000
452.963226	153.880000
453.056915	153.840000
453.150604	153.900000
453.244293	154.020000
453.337982	154.820000
453.431671	155.260000
453.525360	155.880000
453.619049	156.020000
453.712769	156.140000
453.806427	155.560000
453.900146	154.760000
453.993805	154.460000
454.087555	154.760000
454.181213	154.720000
454.274933	154.840000
454.368591	155.220000
454.462311	155.140000
454.555969	154.800000
454.649689	155.460000
454.743347	155.560000
454.837067	155.840000
454.930756	156.200000
455.024445	156.500000
455.118134	155.820000
455.211853	155.900000
455.305542	155.440000
455.399231	155.140000
455.492920	154.740000
455.586609	154.780000
455.680298	155.080000
455.773987	154.700000
455.867676	154.480000
455.961365	154.560000
456.055084	154.480000
456.148773	154.280000
456.242493	154.780000
456.336151	154.780000
456.429871	155.360000
456.523529	155.800000
456.617249	155.380000
456.710907	156.000000
456.804626	155.820000
456.898315	154.880000
456.992035	154.500000
457.085693	154.300000
457.179413	153.220000
457.273102	154.200000
457.366791	154.460000
457.460480	154.840000
457.554199	155.740000
457.647888	156.000000
457.741577	155.180000
457.835266	155.340000
457.928955	155.520000
458.022644	155.540000
458.116364	155.820000
458.210052	155.940000
458.303741	155.960000
458.397461	155.300000
458.491119	154.500000
458.584839	154.280000
458.678528	153.740000
458.772247	153.340000
458.865906	153.760000
458.959625	154.860000
459.053284	155.220000
459.147003	155.340000
459.240692	156.020000
459.334412	155.960000
459.428070	155.240000
459.521790	154.980000
459.615479	155.100000
459.709198	155.300000
459.802887	154.620000
459.896576	154.680000
459.990265	154.780000
460.083954	155.040000
460.177673	154.580000
460.271362	155.080000
460.365051	154.720000
460.458740	154.480000
460.552429	154.040000
460.646149	153.760000
460.739838	153.280000
460.833527	153.760000
460.927246	153.380000
461.020905	153.420000
461.114655	153.360000
461.208313	153.900000
461.302032	153.240000
461.395691	153.740000
461.489441	153.940000
461.583099	154.140000
461.676819	154.080000
461.770477	154.680000
461.864197	154.380000
461.957916	154.160000
462.051605	153.620000
462.145294	154.260000
462.238983	153.880000
462.332703	154.520000
462.426392	155.300000
462.520081	155.660000
462.613770	154.760000
462.707489	155.160000
462.801178	154.820000
462.894867	154.400000
462.988556	154.540000
463.082275	155.080000
463.175964	154.800000
463.269684	155.160000
463.363342	155.260000
463.457092	154.640000
463.550751	154.740000
463.644470	155.040000
463.738129	154.680000
463.831879	154.860000
463.925537	156.000000
464.019257	155.860000
464.112946	155.760000
464.206665	155.580000
464.300323	155.160000
464.394043	154.380000
464.487762	154.200000
464.581451	154.380000
464.675140	154.280000
464.768829	154.540000
464.862549	154.880000
464.956238	154.900000
465.049927	154.940000
465.143646	155.420000
465.237335	155.320000
465.331024	155.580000
465.424713	155.540000
465.518433	155.340000
465.612152	154.960000
465.705811	155.020000
465.799561	154.920000
465.893219	154.680000
465.986938	154.600000
466.080597	154.400000
466.174347	154.820000
466.268005	154.680000
466.361725	154.920000
466.455414	154.880000
466.549133	155.020000
466.642792	154.700000
466.736542	154.280000
466.830231	154.340000
466.923920	154.240000
467.017609	154.440000
467.111328	153.980000
467.205017	154.320000
467.298706	154.160000
467.392426	154.560000
467.486115	154.840000
467.579803	154.780000
467.673523	155.060000
467.767212	155.360000
467.860901	155.260000
467.954651	155.480000
468.048309	156.080000
468.142029	155.880000
468.235718	155.660000
468.329437	155.240000
468.423096	154.700000
468.516846	154.240000
468.610504	154.020000
468.704224	153.620000
468.797913	153.760000
468.891632	153.980000
468.985291	154.260000
469.079010	154.420000
469.172729	154.380000
469.266418	154.700000
469.360107	154.680000
469.453827	154.300000
469.547516	154.360000
469.641205	154.780000
469.734924	154.700000
469.828613	155.060000
469.922302	155.500000
470.016022	155.500000
470.109711	155.460000
470.203430	155.020000
470.297150	154.220000
470.390808	154.300000
470.484558	154.000000
470.578217	154.220000
470.671936	155.180000
470.765625	156.100000
470.859344	155.640000
470.953003	156.160000
471.046753	155.780000
471.140411	154.600000
471.234131	154.200000
471.327820	154.820000
471.421539	154.460000
471.515228	154.560000
471.608948	155.280000
471.702637	155.080000
471.796326	154.560000
471.890045	154.880000
471.983734	154.760000
472.077423	154.400000
472.171143	154.520000
472.264832	154.620000
472.358521	154.360000
472.452240	154.220000
472.545929	154.980000
472.639648	155.080000
472.733337	155.420000
472.827057	155.580000
472.920746	155.820000
473.014465	155.900000
473.108124	155.960000
473.201874	156.040000
473.295532	155.920000
473.389252	156.340000
473.482941	156.140000
473.576660	155.760000
473.670319	155.440000
473.764069	155.720000
473.857727	155.680000
473.951477	155.660000
474.045166	156.220000
474.138855	156.120000
474.232574	155.640000
474.326263	155.580000
474.419952	155.620000
474.513672	155.400000
474.607361	155.260000
474.701050	155.740000
474.794769	155.920000
474.888458	155.880000
474.982178	155.580000
475.075867	155.740000
475.169586	155.520000
475.263275	154.660000
475.356995	154.500000
475.450653	154.560000
475.544403	154.100000
475.638062	154.900000
475.731812	155.020000
475.825470	154.780000
475.919189	154.980000
476.012878	155.560000
476.106598	154.660000
476.200256	155.280000
476.294006	155.420000
476.387695	155.280000
476.481384	155.080000
476.575104	155.080000
476.668793	154.580000
476.762512	154.140000
476.856201	154.720000
476.949890	154.380000
477.043610	154.040000
477.137299	154.120000
477.230988	154.660000
477.324707	153.840000
477.418396	154.460000
477.512146	154.640000
477.605804	154.600000
477.699524	154.480000
477.793213	154.640000
477.886932	154.300000
477.980591	154.200000
478.074341	153.920000
478.167999	153.480000
478.261749	153.820000
478.355408	153.900000
478.449127	154.480000
478.542816	155.680000
478.636536	156.340000
478.730225	156.220000
478.823944	156.280000
478.917633	156.340000
479.011322	156.060000
479.105042	155.920000
479.198730	156.160000
479.292450	156.000000
479.386139	156.040000
479.479828	155.820000
479.573547	155.980000
479.667267	155.520000
479.760925	155.540000
479.854675	155.500000
479.948334	155.560000
480.042084	154.940000
480.135742	155.380000
480.229462	155.180000
480.323151	154.960000
480.416870	154.140000
480.510529	154.440000
480.604279	153.920000
480.697937	154.640000
480.791656	154.080000
480.885345	153.980000
480.979065	154.120000
481.072754	154.580000
481.166473	154.480000
481.260132	154.700000
481.353882	155.000000
481.447540	155.000000
481.541260	155.040000
481.635010	154.760000
481.728668	155.060000
481.822388	154.980000
481.916077	154.820000
482.009796	154.460000
482.103485	154.600000
482.197205	154.360000
482.290863	154.720000
482.384613	154.440000
482.478271	154.340000
482.571991	154.140000
482.665680	154.300000
482.759399	154.860000
482.853058	155.640000
482.946808	155.720000
483.040466	155.820000
483.134216	155.520000
483.227875	155.100000
483.321594	155.100000
483.415283	155.120000
483.509003	154.800000
483.602661	154.740000
483.696411	154.880000
483.790070	154.460000
483.883789	154.440000
483.977478	154.780000
484.071198	155.160000
484.164917	154.660000
484.258606	154.220000
484.352325	154.800000
484.445984	154.920000
484.539734	154.780000
484.633392	154.620000
484.727142	155.300000
484.820801	154.740000
484.914520	154.820000
485.008209	154.980000
485.101929	155.580000
485.195587	155.460000
485.289337	155.640000
485.382996	155.500000
485.476715	155.520000
485.570404	155.880000
485.664124	155.700000
485.757782	156.120000
485.851532	155.580000
485.945190	155.420000
486.038910	155.200000
486.132599	155.660000
486.226318	154.700000
486.319977	155.100000
486.413727	155.500000
486.507446	155.160000
486.601105	154.460000
486.694855	154.680000
486.788513	154.540000
486.882233	154.280000
486.975922	154.360000
487.069641	154.480000
487.163300	154.360000
487.257050	155.320000
487.350708	154.840000
487.444427	154.480000
487.538116	154.600000
487.631836	154.760000
487.725494	153.960000
487.819214	154.460000
487.912903	154.600000
488.006622	154.860000
488.100281	155.460000
488.194031	155.640000
488.287689	156.160000
488.381409	156.840000
488.475098	156.620000
488.568817	156.380000
488.662476	155.980000
488.756226	155.080000
488.849945	154.120000
488.943604	154.260000
489.037354	154.380000
489.131012	154.640000
489.224731	154.680000
489.318390	154.740000
489.412140	154.420000
489.505798	154.020000
489.599518	153.460000
489.693207	153.760000
489.786926	153.940000
489.880585	154.080000
489.974335	154.460000
490.067993	155.960000
490.161713	156.140000
490.255371	156.800000
490.349121	156.840000
490.442780	156.640000
490.536499	155.480000
490.630188	155.580000
490.723907	154.700000
490.817566	154.820000
490.911285	154.800000
491.004974	154.500000
491.098694	153.920000
491.192413	154.620000
491.286102	154.240000
491.379822	153.780000
491.473480	154.300000
491.567200	154.380000
491.660889	153.820000
491.754608	154.100000
491.848267	154.340000
491.941986	154.100000
492.035675	154.140000
492.129395	154.700000
492.223053	154.400000
492.316772	154.580000
492.410461	154.400000
492.504181	154.560000
492.597839	154.120000
492.691559	154.440000
492.785248	154.760000
492.878967	154.920000
492.972626	154.620000
493.066345	154.680000
493.160034	154.340000
493.253754	153.820000
493.347412	153.400000
493.441132	153.280000
493.534882	153.960000
493.628540	154.100000
493.722260	154.420000
493.815918	155.140000
493.909668	156.160000
494.003326	156.100000
494.097046	156.040000
494.190704	155.680000
494.284454	155.420000
494.378113	155.080000
494.471832	154.480000
494.565491	154.400000
494.659210	154.760000
494.752899	154.920000
494.846619	154.660000
494.940277	155.080000
495.033997	155.180000
495.127686	154.760000
495.221405	154.540000
495.315063	154.600000
495.408783	154.100000
495.502441	154.240000
495.596191	154.700000
495.689850	154.480000
495.783569	155.000000
495.877228	155.240000
495.970947	154.960000
496.064697	154.560000
496.158356	155.500000
496.252075	154.740000
496.345734	154.460000
496.439453	155.260000
496.533142	155.520000
496.626862	155.660000
496.720520	156.080000
496.814240	156.480000
496.907898	156.000000
497.001617	156.280000
497.095306	155.380000
497.189026	155.080000
497.282684	154.800000
497.376404	155.020000
497.470062	154.640000
497.563782	155.040000
497.657471	155.180000
497.751190	155.400000
497.844849	155.360000
497.938568	155.660000
498.032227	155.540000
498.125946	155.420000
498.219635	155.080000
498.313354	155.140000
498.407074	154.500000
498.500732	154.580000
498.594452	154.880000
498.688110	154.700000
498.781830	154.180000
498.875519	154.480000
498.969238	154.640000
499.062897	154.300000
499.156616	155.060000
499.250275	155.260000
499.343994	154.860000
499.437653	154.740000
499.531372	154.940000
499.625061	155.440000
499.718781	155.820000
499.812439	156.200000
499.906158	155.920000
499.999817	155.800000
500.093536	154.960000
500.187195	154.980000
500.280914	155.280000
500.374573	155.680000
500.468323	155.480000
500.561981	155.800000
500.655701	155.160000
500.749420	155.140000
500.843079	155.140000
500.936798	155.380000
501.030457	155.580000
501.124176	156.040000
501.217834	155.580000
501.311554	155.360000
501.405212	155.140000
501.498962	154.080000
501.592621	153.920000
501.686340	154.440000
501.779999	154.460000
501.873718	154.700000
501.967377	155.220000
502.061096	155.400000
502.154755	154.580000
502.248474	154.640000
502.342133	154.740000
502.435852	154.660000
502.529510	155.240000
502.623230	156.460000
502.716888	155.920000
502.810608	155.860000
502.904266	156.200000
502.997986	155.480000
503.091705	154.680000
503.185364	155.060000
503.279083	155.100000
503.372772	154.980000
503.466492	154.460000
503.560150	154.580000
503.653870	154.760000
503.747528	154.600000
503.841248	154.500000
503.934906	154.900000
504.028625	154.720000
504.122284	154.600000
504.216003	155.240000
504.309662	155.060000
504.403381	155.240000
504.497040	155.200000
504.590759	155.020000
504.684418	154.920000
504.778137	155.500000
504.871796	156.040000
504.965515	156.180000
505.059174	156.480000
505.152893	155.640000
505.246521	155.020000
505.340240	154.280000
505.433899	154.340000
505.527618	154.480000
505.621338	155.220000
505.714996	155.180000
505.808716	155.160000
505.902374	155.580000
505.996094	155.600000
506.089752	155.120000
506.183472	155.480000
506.277130	155.880000
506.370850	155.520000
506.464508	155.180000
506.558228	155.200000
506.651886	154.540000
506.745605	154.460000
506.839264	154.700000
506.932983	154.700000
507.026611	154.600000
507.120331	155.420000
507.213989	154.800000
507.307709	154.440000
507.401367	154.740000
507.495087	155.820000
507.588745	155.380000
507.682465	156.600000
507.776123	156.740000
507.869843	156.620000
507.963531	156.140000
508.057190	156.480000
508.150909	155.460000
508.244568	155.720000
508.338287	155.280000
508.431946	154.840000
508.525665	154.540000
508.619324	154.760000
508.713013	154.680000
508.806671	155.260000
508.900391	156.460000
508.994049	156.620000
509.087769	156.160000
509.181427	156.240000
509.275146	155.760000
509.368774	154.420000
509.462494	154.320000
509.556152	154.460000
509.649872	154.460000
509.743530	154.720000
509.837250	154.920000
509.930878	154.960000
510.024597	155.080000
510.118256	154.500000
510.211975	154.280000
510.305695	154.180000
510.399353	154.540000
510.493042	155.240000
510.586700	155.820000
510.680420	156.460000
510.774078	156.520000
510.867798	156.520000
510.961426	155.580000
511.055145	155.300000
511.148804	155.000000
511.242523	155.480000
511.336151	155.400000
511.429871	156.060000
511.523529	156.080000
511.617249	155.820000
511.710876	155.280000
511.804596	154.780000
511.898254	154.500000
511.991974	154.540000
512.085632	154.320000
512.179321	154.540000
512.272949	155.260000
512.366699	155.360000
512.460327	155.560000
512.554077	156.840000
512.647766	156.640000
512.741394	156.080000
512.835144	156.860000
512.928772	156.360000
513.022461	155.620000
513.116150	155.520000
513.209839	156.120000
513.303467	155.280000
513.397217	155.200000
513.490845	154.680000
513.584595	154.560000
513.678223	153.800000
513.771912	153.260000
513.865601	153.580000
513.959290	153.440000
514.052917	153.800000
514.146667	154.640000
514.240295	155.480000
514.333984	155.420000
514.427673	155.580000
514.521362	155.900000
514.614990	155.100000
514.708740	154.960000
514.802368	155.300000
514.896057	155.580000
514.989746	156.180000
515.083435	156.160000
515.177124	156.300000
515.270752	156.040000
515.364502	155.980000
515.458130	155.300000
515.551819	155.380000
515.645508	155.280000
515.739197	155.400000
515.832825	155.280000
515.926575	154.900000
516.020203	155.160000
516.113892	155.380000
516.207520	155.120000
516.301270	155.260000
516.394897	155.760000
516.488586	155.980000
516.582275	155.640000
516.675964	155.180000
516.769592	155.240000
516.863281	155.640000
516.956970	156.060000
517.050659	155.900000
517.144287	156.480000
517.238037	156.600000
517.331665	155.720000
517.425354	154.920000
517.519043	155.020000
517.612732	154.940000
517.706421	154.720000
517.800049	154.840000
517.893738	154.820000
517.987427	154.940000
518.081116	154.760000
518.174744	154.300000
518.268433	154.600000
518.362122	155.180000
518.455811	154.840000
518.549438	155.700000
518.643127	156.980000
518.736816	156.740000
518.830505	156.200000
518.924133	156.260000
519.017822	156.060000
519.111511	155.360000
519.205200	155.960000
519.298828	155.880000
519.392517	155.800000
519.486206	155.880000
519.579895	156.360000
519.673523	155.640000
519.767212	156.000000
519.860901	156.620000
519.954590	156.160000
520.048279	155.300000
520.141907	155.300000
520.235596	156.000000
520.329224	155.900000
520.422974	155.820000
520.516602	156.180000
520.610291	155.980000
520.703918	155.500000
520.797607	155.000000
520.891296	155.180000
520.984985	155.280000
521.078613	155.980000
521.172302	155.400000
521.265930	156.620000
521.359680	157.160000
521.453308	156.980000
521.546997	156.440000
521.640625	156.520000
521.734314	155.780000
521.827942	155.620000
521.921692	155.960000
522.015320	156.040000
522.109009	156.120000
522.202698	155.900000
522.296326	155.200000
522.390015	155.380000
522.483704	155.580000
522.577393	155.160000
522.671021	154.780000
522.764709	154.720000
522.858337	154.840000
522.952026	154.660000
523.045654	155.240000
523.139404	155.920000
523.233032	156.220000
523.326721	155.580000
523.420349	155.440000
523.514038	155.200000
523.607666	155.400000
523.701355	155.020000
523.795044	155.040000
523.888733	155.380000
523.982361	155.760000
524.076050	155.020000
524.169678	155.760000
524.263367	155.320000
524.356995	155.180000
524.450684	154.400000
524.544373	154.360000
524.638062	153.760000
524.731750	154.180000
524.825378	153.900000
524.919067	153.840000
525.012695	154.180000
525.106384	153.980000
525.200012	154.260000
525.293701	154.180000
525.387329	154.760000
525.481018	154.680000
525.574646	155.020000
525.668396	154.720000
525.762024	155.200000
525.855713	155.160000
525.949341	154.680000
526.043030	154.800000
526.136658	154.780000
526.230347	154.240000
526.323975	154.000000
526.417664	154.300000
526.511292	154.040000
526.604980	154.180000
526.698608	153.980000
526.792297	154.260000
526.885925	154.640000
526.979614	155.020000
527.073303	155.080000
527.166931	155.520000
527.260620	155.560000
527.354309	155.600000
527.447998	155.640000
527.541626	155.500000
527.635315	155.720000
527.728943	156.240000
527.822632	156.280000
527.916260	156.040000
528.009949	156.020000
528.103577	155.440000
528.197266	154.560000
528.290894	154.220000
528.384583	154.100000
528.478210	154.200000
528.571899	154.780000
528.665527	155.220000
528.759216	155.880000
528.852844	156.380000
528.946533	156.220000
529.040161	156.040000
529.133850	155.560000
529.227478	155.020000
529.321167	155.260000
529.414856	155.800000
529.508484	156.440000
529.602173	156.340000
529.695801	156.220000
529.789490	155.640000
529.883057	155.020000
529.976746	154.760000
530.070374	155.340000
530.164062	155.640000
530.257690	156.200000
530.351379	156.640000
530.445007	156.520000
530.538696	155.860000
530.632324	155.880000
530.726013	155.440000
530.819641	155.240000
530.913330	155.120000
531.006958	155.400000
531.100647	155.400000
531.194275	155.220000
531.287964	155.140000
531.381592	155.080000
531.475220	155.000000
531.568848	155.020000
531.662537	154.840000
531.756226	155.360000
531.849854	155.040000
531.943542	155.320000
532.037170	154.700000
532.130859	155.240000
532.224487	154.640000
532.318176	154.360000
532.411804	154.600000
532.505432	155.040000
532.599060	154.720000
532.692749	154.620000
532.786377	155.340000
532.880066	154.400000
532.973694	153.700000
533.067383	153.920000
533.161011	154.060000
533.254639	154.120000
533.348267	154.300000
533.441956	154.940000
533.535583	154.720000
533.629272	154.820000
533.722900	154.180000
533.816589	154.600000
533.910156	154.840000
534.003845	154.360000
534.097534	154.800000
534.191162	155.600000
534.284851	155.580000
534.378479	155.440000
534.472107	155.900000
534.565735	155.160000
534.659424	155.420000
534.753052	155.420000
534.846741	155.160000
534.940369	155.800000
535.033997	155.940000
535.127625	155.380000
535.221313	155.960000
535.314941	155.900000
535.408630	155.060000
535.502197	155.380000
535.595886	155.220000
535.689514	154.520000
535.783203	155.080000
535.876831	155.640000
535.970459	155.720000
536.064087	155.360000
536.157776	155.440000
536.251404	155.320000
536.345093	155.140000
536.438721	154.940000
536.532349	155.580000
536.626038	155.380000
536.719666	155.540000
536.813293	155.140000
536.906921	155.180000
537.000610	155.380000
537.094238	155.560000
537.187866	155.100000
537.281494	155.320000
537.375183	155.620000
537.468811	155.340000
537.562439	155.480000
537.656067	155.560000
537.749756	155.500000
537.843384	155.900000
537.937012	155.940000
538.030640	155.640000
538.124329	155.760000
538.217896	156.240000
538.311584	155.880000
538.405212	155.700000
538.498901	156.180000
538.592468	156.840000
538.686157	156.200000
538.779785	155.340000
538.873413	155.340000
538.967102	154.780000
539.060730	153.840000
539.154358	154.100000
539.247986	154.780000
539.341675	154.760000
539.435242	154.820000
539.528931	154.900000
539.622559	154.660000
539.716187	154.940000
539.809814	155.100000
539.903503	155.260000
539.997070	155.220000
540.090759	155.440000
540.184387	155.060000
540.278015	155.220000
540.371643	155.480000
540.465332	155.760000
540.558899	155.660000
540.652588	155.480000
540.746216	155.040000
540.839844	155.120000
540.933472	155.300000
541.027100	155.220000
541.120728	155.440000
541.214417	155.920000
541.308044	156.280000
541.401672	155.740000
541.495300	155.500000
541.588928	155.400000
541.682617	154.760000
541.776184	154.280000
541.869873	154.580000
541.963440	154.820000
542.057129	154.820000
542.150757	155.180000
542.244385	154.600000
542.338013	154.000000
542.431641	154.080000
542.525269	154.240000
542.618958	154.780000
542.712524	155.280000
542.806213	155.620000
542.899780	155.880000
542.993469	155.560000
543.087036	154.980000
543.180725	154.560000
543.274292	154.740000
543.367981	154.880000
543.461548	155.380000
543.555237	155.340000
543.648926	156.200000
543.742493	157.000000
543.836182	156.740000
543.929749	156.140000
544.023437	156.120000
544.117004	155.660000
544.210693	155.240000
544.304260	155.040000
544.397949	155.080000
544.491516	155.480000
544.585205	155.340000
544.678772	154.660000
544.772461	155.520000
544.866028	155.240000
544.959717	155.160000
545.053284	154.900000
545.146973	155.140000
545.240540	154.440000
545.334229	155.280000
545.427795	155.300000
545.521423	155.640000
545.615051	155.600000
545.708679	156.280000
545.802307	155.720000
545.895935	156.080000
545.989624	156.880000
546.083191	157.040000
546.176880	156.580000
546.270447	156.300000
546.364136	156.140000
546.457703	155.240000
546.551331	155.240000
546.644958	155.400000
546.738586	156.280000
546.832214	155.920000
546.925842	156.000000
547.019409	156.380000
547.113098	155.880000
547.206665	155.200000
547.300354	155.220000
547.393921	155.660000
547.487549	155.420000
547.581177	155.080000
547.674805	155.140000
547.768433	154.480000
547.862061	154.080000
547.955627	153.700000
548.049316	154.800000
548.142883	155.040000
548.236572	155.820000
548.330139	156.340000
548.423767	156.260000
548.517456	155.640000
548.611023	156.000000
548.704651	155.560000
548.798279	155.180000
548.891907	155.860000
548.985474	155.720000
549.079163	155.720000
549.172729	155.640000
549.266357	154.920000
549.359985	154.420000
549.453613	154.060000
549.547180	153.680000
549.640869	154.280000
549.734436	154.580000
549.828064	155.220000
549.921631	155.460000
550.015320	155.140000
550.108887	155.420000
550.202515	155.360000
550.296143	154.740000
550.389771	154.920000
550.483337	155.120000
550.576965	154.360000
550.670593	155.040000
550.764221	155.380000
550.857849	155.380000
550.951477	154.840000
551.045105	154.820000
551.138672	154.600000
551.232300	153.900000
551.325928	154.220000
551.419556	154.760000
551.513123	154.940000
551.606750	154.440000
551.700378	154.920000
551.794006	154.660000
551.887573	154.800000
551.981201	155.260000
552.074768	155.640000
552.168457	155.140000
552.262024	156.100000
552.355652	155.920000
552.449219	156.060000
552.542847	156.120000
552.636475	156.200000
552.730103	155.000000
552.823669	154.840000
552.917297	154.240000
553.010864	154.240000
553.104553	154.800000
553.198181	154.540000
553.291748	155.220000
553.385376	155.620000
553.478943	155.380000
553.572571	155.280000
553.666199	155.700000
553.759827	155.000000
553.853394	154.180000
553.947021	154.560000
554.040588	154.200000
554.134216	154.180000
554.227783	155.020000
554.321411	155.980000
554.415039	155.380000
554.508667	155.760000
554.602234	155.980000
554.695862	154.860000
554.789429	154.520000
554.883057	154.720000
554.976624	154.600000
555.070251	154.580000
555.163818	154.920000
555.257507	154.740000
555.351074	154.780000
555.444702	155.920000
555.538330	155.560000
555.631897	156.080000
555.725525	156.080000
555.819092	156.080000
555.912720	154.740000
556.006287	155.340000
556.099915	154.820000
556.193481	154.920000
556.287109	155.140000
556.380676	154.980000
556.474304	154.940000
556.567871	155.380000
556.661499	154.960000
556.755066	154.920000
556.848694	155.340000
556.942261	155.000000
557.035889	155.180000
557.129517	155.520000
557.223145	155.880000
557.316711	155.840000
557.410339	155.820000
557.503906	155.340000
557.597473	155.880000
557.691040	155.580000
557.784668	155.600000
557.878296	155.660000
557.971863	156.140000
558.065491	155.940000
558.159058	155.560000
558.252686	156.140000
558.346252	156.860000
558.439880	156.080000
558.533447	155.420000
558.627075	155.320000
558.720642	154.400000
558.814270	154.000000
558.907837	154.460000
559.001465	154.360000
559.095032	155.080000
559.188660	155.480000
559.282227	154.840000
559.375854	155.120000
559.469360	155.180000
559.562988	155.360000
559.656555	155.300000
559.750183	155.620000
559.843750	155.480000
559.937378	155.900000
560.030945	155.620000
560.124573	0.000000
560.218140	0.000000
560.311707	0.000000
560.405334	0.000000
560.498901	0.000000
560.592529	0.000000
560.686096	0.000000
560.779724	0.000000
560.873291	0.000000
560.966858	0.000000
561.060425	0.000000
561.154053	0.000000
561.247620	0.000000
561.341248	0.000000
561.434814	0.000000
561.528381	0.000000
561.621948	0.000000
561.715576	0.000000
561.809143	0.000000
561.902771	0.000000
561.996277	0.000000
562.089905	0.000000
562.183472	0.000000
562.277100	0.000000
