Model Number: SPM-002-B   
Serial Number: 70087108
Firmware Version: 004.15.4
Exposure Time: 100000.000000us
Data Taken on: 15-01-2021 17:49:35.435
Wavelength	Amplitude
221.570786	0.000000
221.663406	0.000000
221.756027	0.000000
221.848648	0.000000
221.941269	0.000000
222.033905	0.000000
222.126526	0.000000
222.219162	0.000000
222.311798	0.000000
222.404419	0.000000
222.497055	0.000000
222.589676	0.000000
222.682312	0.000000
222.774933	0.000000
222.867569	0.000000
222.960205	0.000000
223.052841	0.000000
223.145462	0.000000
223.238098	0.000000
223.330734	0.000000
223.423386	0.000000
223.516022	0.000000
223.608658	0.000000
223.701309	0.000000
223.793945	0.000000
223.886581	0.000000
223.979218	0.000000
224.071869	0.000000
224.164505	0.000000
224.257156	0.000000
224.349792	0.000000
224.442444	0.000000
224.535095	0.000000
224.627747	0.000000
224.720398	0.000000
224.813034	0.000000
224.905685	0.000000
224.998337	154.220000
225.090988	153.740000
225.183640	153.760000
225.276291	153.600000
225.368942	154.200000
225.461594	154.660000
225.554245	154.660000
225.646912	154.540000
225.739578	155.160000
225.832230	155.660000
225.924896	155.040000
226.017548	155.580000
226.110199	156.100000
226.202866	155.080000
226.295532	154.380000
226.388184	154.320000
226.480850	153.560000
226.573517	152.920000
226.666168	153.380000
226.758835	153.920000
226.851501	154.680000
226.944183	155.100000
227.036850	154.980000
227.129517	154.960000
227.222183	155.120000
227.314850	154.680000
227.407516	154.980000
227.500198	156.220000
227.592865	155.840000
227.685532	155.260000
227.778214	155.120000
227.870880	155.200000
227.963562	155.120000
228.056229	155.580000
228.148926	155.780000
228.241592	156.600000
228.334274	156.240000
228.426956	155.880000
228.519638	156.000000
228.612305	155.600000
228.704987	155.620000
228.797668	155.900000
228.890350	155.520000
228.983032	154.780000
229.075714	155.760000
229.168396	155.000000
229.261108	154.060000
229.353790	154.040000
229.446472	154.460000
229.539169	153.600000
229.631851	153.340000
229.724533	154.060000
229.817230	154.160000
229.909912	155.100000
230.002609	155.640000
230.095306	155.740000
230.187988	155.380000
230.280685	155.180000
230.373383	154.020000
230.466095	153.820000
230.558792	154.220000
230.651474	154.080000
230.744171	154.100000
230.836868	153.920000
230.929581	154.000000
231.022278	153.980000
231.114975	154.440000
231.207672	154.380000
231.300369	155.340000
231.393082	155.500000
231.485779	155.280000
231.578506	155.000000
231.671204	155.180000
231.763916	154.660000
231.856613	154.260000
231.949326	154.740000
232.042023	154.620000
232.134735	154.880000
232.227448	154.860000
232.320160	155.400000
232.412872	155.120000
232.505585	156.280000
232.598297	156.460000
232.691010	155.960000
232.783722	155.200000
232.876450	155.600000
232.969162	154.820000
233.061874	154.060000
233.154587	154.260000
233.247314	154.740000
233.340027	153.820000
233.432739	154.340000
233.525467	154.620000
233.618179	154.960000
233.710907	154.740000
233.803635	155.580000
233.896347	154.880000
233.989090	155.680000
234.081818	155.720000
234.174545	155.760000
234.267258	155.240000
234.359985	155.820000
234.452713	155.320000
234.545441	154.820000
234.638168	154.560000
234.730896	155.300000
234.823639	154.880000
234.916367	155.160000
235.009094	155.480000
235.101822	156.000000
235.194580	155.680000
235.287308	155.760000
235.380051	155.080000
235.472778	155.500000
235.565521	155.480000
235.658249	155.340000
235.750992	155.560000
235.843719	155.700000
235.936462	155.520000
236.029205	154.940000
236.121948	154.440000
236.214691	154.380000
236.307449	155.120000
236.400192	154.800000
236.492935	155.000000
236.585678	155.240000
236.678421	155.300000
236.771164	154.600000
236.863907	155.380000
236.956665	155.340000
237.049408	157.160000
237.142151	156.440000
237.234909	157.480000
237.327652	157.480000
237.420410	157.500000
237.513153	156.180000
237.605927	156.680000
237.698669	155.800000
237.791428	154.620000
237.884186	155.120000
237.976944	154.540000
238.069702	154.640000
238.162445	154.140000
238.255203	154.560000
238.347961	154.540000
238.440720	154.800000
238.533478	154.560000
238.626266	154.600000
238.719025	154.820000
238.811783	154.680000
238.904541	154.540000
238.997314	154.400000
239.090073	154.060000
239.182831	154.440000
239.275604	155.140000
239.368362	154.920000
239.461136	155.220000
239.553909	155.500000
239.646667	155.300000
239.739441	154.540000
239.832214	154.780000
239.925003	154.940000
240.017761	155.620000
240.110535	155.960000
240.203308	155.560000
240.296082	155.900000
240.388855	155.900000
240.481628	155.740000
240.574417	155.500000
240.667191	155.780000
240.759964	155.200000
240.852737	155.040000
240.945526	154.940000
241.038315	154.600000
241.131088	154.700000
241.223877	155.080000
241.316650	154.260000
241.409439	154.480000
241.502228	154.300000
241.595001	154.740000
241.687790	154.700000
241.780579	155.240000
241.873367	155.320000
241.966141	155.500000
242.058929	154.620000
242.151718	154.540000
242.244507	155.160000
242.337311	154.100000
242.430099	154.560000
242.522903	155.220000
242.615692	155.060000
242.708481	154.680000
242.801270	155.500000
242.894073	155.320000
242.986862	155.020000
243.079651	155.800000
243.172455	155.280000
243.265244	155.140000
243.358063	154.460000
243.450867	154.920000
243.543655	154.420000
243.636459	154.880000
243.729263	155.340000
243.822067	155.820000
243.914856	155.700000
244.007660	155.700000
244.100464	155.640000
244.193268	154.960000
244.286072	155.000000
244.378876	154.420000
244.471680	154.160000
244.564499	154.560000
244.657318	155.580000
244.750122	155.680000
244.842926	155.420000
244.935745	155.560000
245.028549	154.880000
245.121368	154.340000
245.214172	154.280000
245.306992	155.080000
245.399796	154.980000
245.492615	155.280000
245.585434	155.020000
245.678253	154.940000
245.771072	154.740000
245.863892	155.320000
245.956711	155.380000
246.049530	155.080000
246.142349	154.740000
246.235168	154.740000
246.327988	154.880000
246.420807	154.800000
246.513626	155.020000
246.606445	155.160000
246.699280	155.280000
246.792099	154.640000
246.884918	154.280000
246.977753	154.120000
247.070587	154.060000
247.163422	153.660000
247.256241	153.980000
247.349075	154.460000
247.441895	154.580000
247.534729	154.660000
247.627563	154.740000
247.720383	155.060000
247.813217	154.780000
247.906052	154.640000
247.998886	154.860000
248.091736	154.720000
248.184570	154.300000
248.277405	154.420000
248.370239	155.360000
248.463074	156.120000
248.555908	156.560000
248.648743	156.340000
248.741592	156.660000
248.834427	155.700000
248.927261	154.380000
249.020111	154.520000
249.112946	155.220000
249.205795	154.340000
249.298630	154.580000
249.391495	155.160000
249.484344	154.520000
249.577179	154.140000
249.670029	154.720000
249.762878	155.480000
249.855728	155.560000
249.948563	156.000000
250.041412	155.580000
250.134262	155.760000
250.227112	155.480000
250.319962	155.260000
250.412827	154.980000
250.505692	154.780000
250.598541	154.780000
250.691391	154.240000
250.784241	154.300000
250.877106	154.580000
250.969955	154.780000
251.062805	155.040000
251.155670	155.840000
251.248520	155.500000
251.341385	156.040000
251.434235	155.920000
251.527100	155.440000
251.619965	154.480000
251.712814	155.440000
251.805695	155.040000
251.898560	155.400000
251.991425	156.060000
252.084290	156.260000
252.177155	155.180000
252.270020	154.880000
252.362885	154.640000
252.455750	154.160000
252.548615	154.000000
252.641479	154.100000
252.734360	153.820000
252.827240	153.740000
252.920105	153.680000
253.012970	153.800000
253.105850	154.140000
253.198715	154.160000
253.291595	154.440000
253.384460	154.040000
253.477341	153.900000
253.570221	153.880000
253.663086	153.680000
253.755966	154.420000
253.848846	154.660000
253.941727	155.080000
254.034592	154.980000
254.127472	154.540000
254.220367	154.000000
254.313248	154.020000
254.406128	153.600000
254.499008	153.920000
254.591904	155.220000
254.684784	155.500000
254.777664	155.440000
254.870544	155.300000
254.963440	155.020000
255.056335	154.700000
255.149216	154.420000
255.242111	155.340000
255.334991	155.860000
255.427887	156.000000
255.520767	156.220000
255.613663	156.500000
255.706558	155.540000
255.799438	155.120000
255.892334	155.040000
255.985229	154.580000
256.078125	154.260000
256.171021	154.360000
256.263916	155.060000
256.356812	155.260000
256.449707	155.540000
256.542603	155.420000
256.635498	155.700000
256.728394	154.940000
256.821289	154.600000
256.914215	154.800000
257.007080	154.860000
257.100006	154.920000
257.192932	155.580000
257.285828	155.800000
257.378723	155.400000
257.471619	155.200000
257.564545	154.760000
257.657440	154.620000
257.750336	155.000000
257.843262	155.060000
257.936157	156.240000
258.029053	156.900000
258.121979	156.940000
258.214874	156.500000
258.307800	156.140000
258.400696	155.020000
258.493622	154.380000
258.586517	153.560000
258.679443	153.980000
258.772339	153.840000
258.865265	153.840000
258.958160	153.560000
259.051086	155.060000
259.144012	154.820000
259.236938	155.840000
259.329834	155.800000
259.422791	156.000000
259.515717	154.760000
259.608612	154.080000
259.701538	153.820000
259.794464	154.000000
259.887390	154.040000
259.980316	154.200000
260.073212	154.480000
260.166138	153.420000
260.259064	153.480000
260.351990	153.980000
260.444916	154.120000
260.537842	154.720000
260.630768	155.700000
260.723694	155.560000
260.816620	155.400000
260.909546	155.420000
261.002472	154.700000
261.095398	154.220000
261.188354	154.340000
261.281281	153.900000
261.374207	154.020000
261.467133	154.840000
261.560089	155.380000
261.653015	154.960000
261.745972	155.660000
261.838867	156.060000
261.931824	156.140000
262.024780	155.640000
262.117706	156.100000
262.210663	156.120000
262.303589	155.760000
262.396515	155.420000
262.489471	156.120000
262.582397	155.860000
262.675354	155.300000
262.768280	155.300000
262.861237	155.320000
262.954163	155.180000
263.047119	155.280000
263.140045	155.120000
263.233002	155.220000
263.325958	154.920000
263.418884	154.360000
263.511841	154.280000
263.604797	154.340000
263.697723	154.140000
263.790680	154.100000
263.883636	154.500000
263.976593	154.720000
264.069550	155.100000
264.162476	154.920000
264.255463	154.840000
264.348419	154.760000
264.441376	154.880000
264.534332	154.240000
264.627289	154.400000
264.720245	155.300000
264.813202	154.580000
264.906158	154.460000
264.999115	155.320000
265.092072	155.220000
265.185028	155.560000
265.277985	156.140000
265.370941	156.060000
265.463898	155.700000
265.556854	155.520000
265.649811	154.380000
265.742798	154.480000
265.835754	154.560000
265.928711	155.060000
266.021667	155.220000
266.114655	155.420000
266.207611	155.840000
266.300568	155.420000
266.393585	154.880000
266.486511	155.020000
266.579498	154.380000
266.672485	153.900000
266.765442	153.760000
266.858429	154.120000
266.951385	153.840000
267.044342	154.280000
267.137329	154.560000
267.230316	154.940000
267.323273	154.540000
267.416260	155.420000
267.509216	155.200000
267.602203	154.740000
267.695160	155.040000
267.788147	154.980000
267.881134	154.360000
267.974091	154.700000
268.067078	154.860000
268.160065	154.880000
268.253052	154.980000
268.346008	155.100000
268.438995	154.760000
268.531982	154.860000
268.624969	154.320000
268.717987	154.480000
268.810944	154.140000
268.903961	154.500000
268.996948	154.260000
269.089905	154.820000
269.182892	154.780000
269.275879	155.180000
269.368866	154.660000
269.461853	154.900000
269.554871	154.620000
269.647858	154.500000
269.740845	154.740000
269.833832	155.520000
269.926819	155.040000
270.019806	155.100000
270.112793	154.840000
270.205811	154.780000
270.298798	154.420000
270.391785	155.080000
270.484772	154.980000
270.577789	155.320000
270.670776	154.560000
270.763763	154.440000
270.856750	154.400000
270.949768	153.920000
271.042786	153.660000
271.135773	154.120000
271.228790	154.540000
271.321808	154.100000
271.414795	154.100000
271.507782	154.240000
271.600800	154.020000
271.693817	153.880000
271.786804	154.360000
271.879822	154.800000
271.972809	154.700000
272.065826	155.220000
272.158844	154.700000
272.251831	155.160000
272.344849	155.140000
272.437866	155.020000
272.530853	154.760000
272.623871	155.460000
272.716888	154.320000
272.809906	154.740000
272.902893	155.060000
272.995911	154.760000
273.088928	154.500000
273.181946	155.040000
273.274963	154.260000
273.367981	153.960000
273.460999	154.000000
273.554047	154.320000
273.647003	154.880000
273.740051	155.280000
273.833069	155.760000
273.926086	155.980000
274.019135	155.580000
274.112152	154.860000
274.205170	154.800000
274.298187	154.880000
274.391205	154.660000
274.484222	154.720000
274.577240	154.840000
274.670258	154.840000
274.763306	154.620000
274.856323	155.120000
274.949341	155.380000
275.042358	155.820000
275.135406	155.740000
275.228424	155.440000
275.321442	155.160000
275.414490	155.000000
275.507507	155.180000
275.600525	155.720000
275.693573	155.800000
275.786591	155.600000
275.879669	155.620000
275.972656	154.900000
276.065735	154.680000
276.158752	155.220000
276.251801	155.940000
276.344818	155.820000
276.437866	156.280000
276.530884	156.080000
276.623932	155.220000
276.716980	155.220000
276.809998	155.260000
276.903046	155.040000
276.996094	155.960000
277.089111	157.060000
277.182159	157.060000
277.275208	156.800000
277.368256	156.780000
277.461304	156.120000
277.554321	154.920000
277.647369	154.740000
277.740417	155.080000
277.833466	154.860000
277.926514	154.780000
278.019562	155.540000
278.112610	154.840000
278.205688	154.460000
278.298706	154.760000
278.391785	154.460000
278.484833	153.980000
278.577881	154.060000
278.670929	154.640000
278.763977	154.660000
278.857025	155.140000
278.950073	155.200000
279.043121	155.200000
279.136169	154.660000
279.229248	154.040000
279.322296	153.740000
279.415344	153.600000
279.508392	153.320000
279.601440	153.600000
279.694519	153.940000
279.787567	153.900000
279.880615	153.740000
279.973694	153.720000
280.066742	153.740000
280.159790	153.900000
280.252869	153.540000
280.345917	153.720000
280.438995	153.980000
280.532074	153.920000
280.625122	154.200000
280.718201	155.220000
280.811279	155.240000
280.904327	155.300000
280.997406	155.540000
281.090454	155.480000
281.183533	154.660000
281.276581	154.760000
281.369659	154.340000
281.462738	154.160000
281.555786	154.120000
281.648865	154.580000
281.741943	154.460000
281.835022	155.340000
281.928070	155.180000
282.021149	154.780000
282.114227	154.500000
282.207306	154.520000
282.300385	154.680000
282.393433	155.100000
282.486511	155.280000
282.579590	155.660000
282.672668	156.120000
282.765747	155.520000
282.858856	154.800000
282.951904	155.060000
283.045013	155.280000
283.138062	155.440000
283.231171	155.800000
283.324249	156.240000
283.417328	156.100000
283.510406	155.700000
283.603485	155.420000
283.696564	155.180000
283.789642	155.240000
283.882751	154.900000
283.975830	155.360000
284.068909	154.900000
284.161987	155.500000
284.255066	155.220000
284.348175	155.400000
284.441254	155.040000
284.534332	155.900000
284.627441	155.260000
284.720520	155.100000
284.813599	155.120000
284.906708	155.160000
284.999786	154.200000
285.092896	153.920000
285.185974	154.800000
285.279053	154.380000
285.372192	154.160000
285.465240	155.000000
285.558380	154.960000
285.651459	154.420000
285.744568	155.540000
285.837677	155.500000
285.930756	155.480000
286.023865	155.620000
286.116943	155.280000
286.210052	154.820000
286.303162	154.660000
286.396240	154.460000
286.489349	154.640000
286.582458	155.140000
286.675568	154.880000
286.768646	155.020000
286.861755	155.100000
286.954865	155.740000
287.047974	155.140000
287.141083	154.940000
287.234161	154.880000
287.327271	154.680000
287.420380	154.980000
287.513519	155.120000
287.606598	155.520000
287.699738	155.740000
287.792816	155.700000
287.885956	155.120000
287.979034	155.120000
288.072174	155.140000
288.165283	154.940000
288.258392	155.200000
288.351501	154.520000
288.444611	154.960000
288.537720	155.160000
288.630859	155.120000
288.723969	155.400000
288.817078	156.060000
288.910187	155.900000
289.003296	155.460000
289.096436	155.040000
289.189545	154.700000
289.282654	154.180000
289.375763	154.380000
289.468903	154.760000
289.562012	155.300000
289.655121	154.980000
289.748260	155.180000
289.841400	155.420000
289.934509	155.040000
290.027649	155.180000
290.120728	155.260000
290.213898	155.300000
290.306976	154.960000
290.400146	155.160000
290.493256	154.660000
290.586395	154.840000
290.679535	154.920000
290.772644	154.700000
290.865784	154.060000
290.958893	153.860000
291.052032	153.600000
291.145172	153.820000
291.238281	153.240000
291.331421	153.740000
291.424561	154.700000
291.517670	154.540000
291.610809	154.340000
291.703949	154.400000
291.797089	154.540000
291.890228	153.940000
291.983337	154.320000
292.076477	154.440000
292.169617	155.060000
292.262756	154.900000
292.355927	154.740000
292.449036	154.600000
292.542206	154.700000
292.635315	155.020000
292.728485	155.320000
292.821625	155.280000
292.914764	156.220000
293.007904	156.220000
293.101044	155.920000
293.194183	155.740000
293.287323	155.840000
293.380463	154.980000
293.473602	154.720000
293.566742	154.940000
293.659882	155.300000
293.753021	155.800000
293.846191	155.960000
293.939331	155.720000
294.032471	155.420000
294.125610	154.940000
294.218781	155.180000
294.311920	155.420000
294.405060	155.580000
294.498230	155.620000
294.591370	155.720000
294.684540	155.000000
294.777679	154.380000
294.870850	154.740000
294.963959	154.480000
295.057159	154.200000
295.150299	154.360000
295.243469	154.660000
295.336609	154.120000
295.429779	154.360000
295.522919	155.000000
295.616089	155.040000
295.709229	155.320000
295.802399	155.680000
295.895569	155.380000
295.988708	154.800000
296.081879	154.800000
296.175018	154.300000
296.268188	153.980000
296.361359	154.560000
296.454529	154.920000
296.547668	154.660000
296.640839	155.100000
296.734009	155.200000
296.827179	155.160000
296.920319	155.500000
297.013519	155.540000
297.106659	155.460000
297.199860	155.100000
297.292999	154.900000
297.386200	154.360000
297.479309	154.320000
297.572510	154.140000
297.665680	154.200000
297.758850	154.180000
297.852020	154.280000
297.945190	154.200000
298.038361	154.020000
298.131531	155.120000
298.224701	154.800000
298.317871	154.520000
298.411072	154.100000
298.504242	153.980000
298.597412	153.160000
298.690582	153.540000
298.783752	153.600000
298.876923	154.300000
298.970093	154.340000
299.063293	154.720000
299.156464	155.360000
299.249634	155.940000
299.342834	156.060000
299.436005	156.680000
299.529205	156.380000
299.622345	156.200000
299.715576	155.320000
299.808716	154.900000
299.901917	154.420000
299.995117	155.020000
300.088287	154.880000
300.181488	154.780000
300.274658	154.700000
300.367828	154.620000
300.461029	154.040000
300.554199	154.060000
300.647400	154.340000
300.740601	154.760000
300.833771	154.680000
300.926971	155.100000
301.020142	154.700000
301.113342	154.640000
301.206512	154.880000
301.299713	155.320000
301.392914	155.120000
301.486084	155.580000
301.579285	155.920000
301.672516	156.220000
301.765686	155.860000
301.858887	155.760000
301.952057	155.560000
302.045288	155.380000
302.138458	155.020000
302.231659	155.440000
302.324860	155.260000
302.418060	154.980000
302.511261	154.700000
302.604462	154.720000
302.697662	154.040000
302.790863	153.980000
302.884064	153.620000
302.977264	153.860000
303.070465	154.100000
303.163666	155.140000
303.256866	155.800000
303.350067	156.120000
303.443268	156.480000
303.536469	156.620000
303.629669	155.660000
303.722870	155.380000
303.816071	154.980000
303.909271	154.500000
304.002472	153.360000
304.095673	153.440000
304.188934	152.940000
304.282104	154.140000
304.375336	154.300000
304.468506	154.800000
304.561768	154.780000
304.654968	155.340000
304.748169	154.640000
304.841370	154.600000
304.934601	154.680000
305.027802	154.140000
305.121002	153.580000
305.214233	153.540000
305.307434	153.640000
305.400665	154.080000
305.493866	154.380000
305.587097	154.800000
305.680298	154.660000
305.773499	154.980000
305.866730	154.680000
305.959930	155.360000
306.053162	155.280000
306.146393	155.020000
306.239594	154.240000
306.332825	154.240000
306.426025	154.680000
306.519287	154.320000
306.612488	154.720000
306.705719	155.020000
306.798920	154.940000
306.892181	153.820000
306.985352	153.580000
307.078613	153.080000
307.171844	153.200000
307.265045	152.940000
307.358276	153.040000
307.451508	153.740000
307.544739	154.520000
307.637970	154.180000
307.731201	154.280000
307.824402	155.060000
307.917633	155.100000
308.010864	155.260000
308.104095	156.100000
308.197327	156.360000
308.290558	155.900000
308.383789	155.600000
308.477020	154.980000
308.570251	154.000000
308.663483	153.580000
308.756714	153.580000
308.849976	153.620000
308.943176	154.060000
309.036438	154.020000
309.129639	153.960000
309.222900	154.020000
309.316101	153.800000
309.409393	153.480000
309.502625	153.360000
309.595856	153.660000
309.689087	154.060000
309.782318	154.420000
309.875580	154.620000
309.968811	155.160000
310.062042	154.820000
310.155273	154.260000
310.248535	154.760000
310.341766	154.720000
310.434998	154.360000
310.528259	154.540000
310.621490	154.820000
310.714722	154.000000
310.807983	153.920000
310.901215	153.960000
310.994476	154.100000
311.087708	154.060000
311.181000	154.640000
311.274200	154.460000
311.367462	154.740000
311.460693	154.400000
311.553986	155.200000
311.647186	155.160000
311.740479	155.980000
311.833710	155.780000
311.926971	156.040000
312.020203	154.720000
312.113464	154.380000
312.206726	153.580000
312.299957	154.060000
312.393219	154.680000
312.486481	155.120000
312.579712	155.080000
312.672974	155.100000
312.766235	154.760000
312.859497	154.180000
312.952759	154.100000
313.045990	154.940000
313.139252	154.520000
313.232513	155.060000
313.325775	154.960000
313.419037	154.940000
313.512299	153.860000
313.605530	154.740000
313.698822	154.360000
313.792053	154.700000
313.885345	154.600000
313.978577	154.960000
314.071869	154.340000
314.165131	154.320000
314.258392	154.520000
314.351654	154.700000
314.444916	154.100000
314.538177	154.620000
314.631439	155.200000
314.724701	154.840000
314.817993	154.420000
314.911255	154.960000
315.004517	154.400000
315.097778	153.760000
315.191040	154.000000
315.284302	154.560000
315.377594	154.560000
315.470856	154.700000
315.564117	154.200000
315.657379	153.660000
315.750671	153.100000
315.843933	153.480000
315.937195	153.120000
316.030518	153.020000
316.123749	153.060000
316.217041	154.140000
316.310303	153.840000
316.403595	154.180000
316.496857	154.960000
316.590149	155.480000
316.683411	154.800000
316.776703	154.580000
316.869965	154.660000
316.963257	154.280000
317.056519	153.580000
317.149811	153.260000
317.243073	153.400000
317.336365	153.720000
317.429626	154.220000
317.522919	154.760000
317.616180	155.300000
317.709473	155.020000
317.802765	154.740000
317.896027	154.520000
317.989319	154.840000
318.082611	154.300000
318.175873	154.280000
318.269165	154.340000
318.362488	154.240000
318.455750	153.800000
318.549042	154.260000
318.642303	154.920000
318.735626	154.580000
318.828888	154.740000
318.922211	154.380000
319.015472	154.980000
319.108765	154.040000
319.202057	154.180000
319.295349	154.120000
319.388641	154.200000
319.481934	153.500000
319.575226	153.680000
319.668518	153.580000
319.761810	153.860000
319.855103	154.120000
319.948395	154.120000
320.041687	154.440000
320.134979	154.600000
320.228271	154.160000
320.321564	153.740000
320.414856	153.960000
320.508148	153.560000
320.601440	153.420000
320.694763	153.060000
320.788025	154.120000
320.881348	153.860000
320.974640	154.080000
321.067963	153.760000
321.161224	154.180000
321.254547	153.140000
321.347839	153.720000
321.441162	153.240000
321.534454	153.800000
321.627747	153.500000
321.721069	154.440000
321.814362	154.300000
321.907654	154.860000
322.000946	154.580000
322.094269	155.460000
322.187561	154.780000
322.280884	155.000000
322.374176	155.020000
322.467468	155.380000
322.560791	155.100000
322.654083	155.520000
322.747406	155.540000
322.840698	155.840000
322.934021	156.260000
323.027344	156.260000
323.120636	155.960000
323.213959	155.500000
323.307251	154.840000
323.400574	154.140000
323.493866	153.600000
323.587219	154.020000
323.680511	154.320000
323.773834	154.540000
323.867157	154.780000
323.960449	155.400000
324.053772	154.760000
324.147095	154.500000
324.240387	154.840000
324.333710	154.880000
324.427032	154.780000
324.520355	154.960000
324.613647	154.480000
324.706970	154.400000
324.800293	154.120000
324.893616	154.260000
324.986938	154.480000
325.080231	154.760000
325.173553	154.840000
325.266876	155.440000
325.360199	155.280000
325.453522	154.820000
325.546875	154.340000
325.640167	154.680000
325.733521	154.780000
325.826813	154.820000
325.920166	154.700000
326.013489	154.980000
326.106812	153.960000
326.200134	153.340000
326.293457	152.860000
326.386780	153.100000
326.480103	153.180000
326.573425	153.320000
326.666748	153.480000
326.760071	153.940000
326.853424	154.280000
326.946747	154.140000
327.040070	154.820000
327.133392	154.520000
327.226715	153.900000
327.320068	153.520000
327.413391	154.420000
327.506714	153.600000
327.600037	153.800000
327.693390	154.260000
327.786713	154.440000
327.880066	153.760000
327.973358	154.360000
328.066742	154.860000
328.160034	154.840000
328.253418	155.140000
328.346710	155.040000
328.440063	154.740000
328.533417	154.240000
328.626740	154.500000
328.720093	153.960000
328.813416	154.280000
328.906769	154.500000
329.000092	154.740000
329.093445	154.860000
329.186768	154.980000
329.280121	155.280000
329.373444	155.440000
329.466797	155.360000
329.560120	155.220000
329.653473	155.500000
329.746796	154.880000
329.840149	154.620000
329.933502	154.840000
330.026825	154.640000
330.120178	154.240000
330.213562	154.140000
330.306854	154.260000
330.400238	154.160000
330.493561	153.940000
330.586945	154.880000
330.680237	155.400000
330.773621	155.480000
330.866974	155.120000
330.960327	155.420000
331.053680	154.780000
331.147003	155.220000
331.240356	155.340000
331.333710	155.520000
331.427063	155.120000
331.520416	154.840000
331.613770	154.020000
331.707123	153.840000
331.800476	153.980000
331.893829	155.160000
331.987152	155.420000
332.080505	155.640000
332.173859	155.500000
332.267212	154.980000
332.360565	154.280000
332.453918	154.140000
332.547333	153.960000
332.640656	153.820000
332.734039	154.260000
332.827362	154.060000
332.920746	154.260000
333.014069	154.640000
333.107452	155.320000
333.200806	155.220000
333.294159	155.400000
333.387543	155.140000
333.480896	154.580000
333.574249	154.160000
333.667603	154.100000
333.760956	154.260000
333.854340	154.400000
333.947693	154.460000
334.041046	154.460000
334.134430	154.960000
334.227783	154.560000
334.321136	154.140000
334.414520	153.920000
334.507874	154.160000
334.601227	153.860000
334.694611	153.960000
334.787964	154.400000
334.881348	154.900000
334.974701	154.700000
335.068085	154.180000
335.161438	154.200000
335.254822	154.060000
335.348175	154.120000
335.441559	153.900000
335.534943	154.960000
335.628296	154.820000
335.721680	154.800000
335.815033	154.700000
335.908417	155.000000
336.001770	154.460000
336.095154	154.460000
336.188538	154.420000
336.281891	153.960000
336.375275	153.460000
336.468658	153.380000
336.562012	153.500000
336.655396	154.020000
336.748779	154.340000
336.842133	154.560000
336.935516	154.880000
337.028900	154.640000
337.122284	154.240000
337.215637	154.680000
337.309021	154.620000
337.402435	154.060000
337.495789	154.060000
337.589203	154.000000
337.682526	153.460000
337.775940	153.860000
337.869324	154.220000
337.962708	154.040000
338.056091	154.440000
338.149475	154.440000
338.242859	154.280000
338.336243	154.320000
338.429626	154.880000
338.523010	155.060000
338.616394	154.960000
338.709778	154.940000
338.803162	155.020000
338.896545	154.980000
338.989929	154.300000
339.083313	154.620000
339.176697	154.380000
339.270081	153.920000
339.363464	154.180000
339.456848	154.660000
339.550232	154.200000
339.643616	154.240000
339.737030	154.380000
339.830383	153.820000
339.923828	153.680000
340.017181	154.100000
340.110596	154.280000
340.203949	154.380000
340.297363	154.080000
340.390778	154.060000
340.484161	154.000000
340.577545	153.880000
340.670959	154.200000
340.764343	154.500000
340.857727	154.800000
340.951111	154.300000
341.044525	154.600000
341.137909	153.880000
341.231293	153.900000
341.324707	153.220000
341.418091	154.360000
341.511505	154.220000
341.604889	154.660000
341.698303	154.660000
341.791687	155.060000
341.885071	154.560000
341.978485	154.520000
342.071899	155.060000
342.165283	155.400000
342.258698	155.500000
342.352081	155.620000
342.445496	156.220000
342.538879	155.500000
342.632324	154.900000
342.725708	154.940000
342.819122	154.460000
342.912506	153.980000
343.005920	153.720000
343.099335	154.940000
343.192719	154.940000
343.286133	155.100000
343.379547	155.200000
343.472931	155.900000
343.566345	154.960000
343.659760	154.820000
343.753143	154.540000
343.846558	154.060000
343.939972	153.640000
344.033386	154.120000
344.126770	153.900000
344.220184	154.160000
344.313599	154.880000
344.407043	154.960000
344.500427	154.000000
344.593872	154.580000
344.687225	154.340000
344.780670	153.760000
344.874054	153.760000
344.967499	154.540000
345.060913	154.260000
345.154327	154.400000
345.247742	154.180000
345.341156	153.960000
345.434570	153.760000
345.527985	153.780000
345.621399	153.840000
345.714813	154.100000
345.808228	154.400000
345.901642	154.200000
345.995056	153.680000
346.088470	153.980000
346.181885	154.240000
346.275299	153.980000
346.368713	154.140000
346.462128	154.040000
346.555573	153.760000
346.648987	154.140000
346.742401	154.160000
346.835815	154.600000
346.929260	154.380000
347.022644	154.300000
347.116119	154.220000
347.209503	154.620000
347.302948	155.260000
347.396362	156.300000
347.489807	156.540000
347.583221	156.640000
347.676636	156.340000
347.770050	155.120000
347.863495	154.460000
347.956909	154.180000
348.050323	153.660000
348.143768	153.700000
348.237183	153.740000
348.330597	154.280000
348.424042	155.020000
348.517456	155.340000
348.610901	155.600000
348.704315	155.560000
348.797760	155.100000
348.891174	154.100000
348.984619	153.380000
349.078033	153.720000
349.171448	154.500000
349.264923	154.580000
349.358337	154.720000
349.451782	155.240000
349.545197	154.280000
349.638641	153.480000
349.732086	153.020000
349.825500	153.660000
349.918945	153.120000
350.012390	153.680000
350.105804	153.960000
350.199249	154.480000
350.292664	154.860000
350.386108	155.200000
350.479553	155.640000
350.572968	155.880000
350.666412	155.760000
350.759857	155.040000
350.853302	155.720000
350.946716	155.080000
351.040161	154.740000
351.133606	154.940000
351.227081	154.920000
351.320465	155.160000
351.413940	155.500000
351.507355	155.800000
351.600830	155.480000
351.694244	155.260000
351.787720	154.840000
351.881104	154.620000
351.974579	154.580000
352.067993	155.760000
352.161469	156.000000
352.254883	155.360000
352.348358	155.100000
352.441803	154.780000
352.535248	154.160000
352.628693	154.700000
352.722137	154.600000
352.815582	154.880000
352.909027	155.220000
353.002472	155.000000
353.095917	154.720000
353.189362	155.420000
353.282806	155.120000
353.376251	154.740000
353.469696	154.060000
353.563141	154.260000
353.656586	153.720000
353.750061	153.460000
353.843475	153.620000
353.936981	154.600000
354.030396	153.900000
354.123871	153.960000
354.217285	155.040000
354.310760	155.120000
354.404175	154.860000
354.497681	154.780000
354.591095	154.680000
354.684570	153.480000
354.777985	153.340000
354.871490	153.040000
354.964935	153.920000
355.058380	154.120000
355.151855	154.120000
355.245300	154.520000
355.338745	154.880000
355.432220	154.580000
355.525665	154.240000
355.619110	154.640000
355.712585	154.600000
355.806030	154.440000
355.899475	153.980000
355.992950	154.460000
356.086426	155.240000
356.179871	154.800000
356.273346	154.940000
356.366791	155.360000
356.460266	155.420000
356.553711	154.400000
356.647186	154.620000
356.740631	154.480000
356.834106	154.100000
356.927551	154.260000
357.021027	154.520000
357.114471	154.680000
357.207947	154.780000
357.301422	155.340000
357.394867	155.260000
357.488342	155.520000
357.581818	155.420000
357.675262	155.240000
357.768738	154.720000
357.862213	153.840000
357.955658	154.020000
358.049133	153.940000
358.142609	154.240000
358.236053	154.260000
358.329529	154.840000
358.423035	154.940000
358.516449	154.500000
358.609955	154.640000
358.703400	155.340000
358.796906	155.560000
358.890350	155.180000
358.983826	155.840000
359.077271	155.340000
359.170776	154.860000
359.264221	154.560000
359.357727	154.460000
359.451172	154.380000
359.544647	154.500000
359.638123	154.200000
359.731598	154.620000
359.825073	155.100000
359.918549	155.200000
360.012024	155.480000
360.105499	155.240000
360.198975	154.900000
360.292450	154.860000
360.385925	154.540000
360.479401	153.740000
360.572876	154.080000
360.666351	154.560000
360.759857	154.060000
360.853302	154.180000
360.946808	154.220000
361.040253	154.480000
361.133759	153.740000
361.227203	154.040000
361.320709	153.740000
361.414154	154.380000
361.507660	154.480000
361.601105	155.220000
361.694641	155.760000
361.788086	155.820000
361.881592	156.140000
361.975067	155.740000
362.068542	155.740000
362.162018	155.340000
362.255524	155.060000
362.348999	154.960000
362.442474	155.320000
362.535950	154.940000
362.629456	154.620000
362.722931	154.680000
362.816406	154.580000
362.909882	154.820000
363.003387	154.440000
363.096863	155.060000
363.190338	155.280000
363.283875	155.140000
363.377319	155.200000
363.470825	156.040000
363.564301	155.200000
363.657806	155.320000
363.751282	155.000000
363.844788	155.540000
363.938232	154.760000
364.031769	155.440000
364.125214	155.700000
364.218750	156.280000
364.312225	155.080000
364.405731	155.440000
364.499207	154.900000
364.592712	154.340000
364.686188	154.200000
364.779694	154.460000
364.873169	154.500000
364.966675	154.560000
365.060150	154.740000
365.153656	154.980000
365.247131	154.800000
365.340637	154.800000
365.434143	155.480000
365.527618	155.780000
365.621155	154.840000
365.714600	155.180000
365.808136	155.160000
365.901611	153.920000
365.995117	153.340000
366.088593	153.560000
366.182129	153.160000
366.275604	153.240000
366.369110	153.760000
366.462585	154.300000
366.556122	155.120000
366.649567	155.520000
366.743103	155.620000
366.836609	155.680000
366.930115	155.540000
367.023590	155.320000
367.117096	154.940000
367.210602	154.760000
367.304108	155.140000
367.397614	155.940000
367.491119	155.860000
367.584595	156.000000
367.678101	156.380000
367.771606	156.140000
367.865112	155.440000
367.958649	154.800000
368.052124	154.760000
368.145660	154.500000
368.239136	155.160000
368.332672	155.160000
368.426147	155.660000
368.519684	155.500000
368.613159	155.540000
368.706696	154.760000
368.800171	154.700000
368.893707	154.460000
368.987183	154.600000
369.080719	154.600000
369.174225	154.560000
369.267731	154.820000
369.361237	154.680000
369.454742	154.640000
369.548248	154.860000
369.641754	154.640000
369.735260	154.040000
369.828766	153.420000
369.922272	153.980000
370.015808	153.440000
370.109314	153.360000
370.202820	153.240000
370.296356	154.440000
370.389832	154.040000
370.483368	154.020000
370.576874	153.980000
370.670410	154.260000
370.763885	153.480000
370.857422	153.840000
370.950928	153.500000
371.044464	154.400000
371.137939	154.680000
371.231476	155.200000
371.324982	155.540000
371.418518	156.000000
371.512024	155.580000
371.605560	155.140000
371.699066	155.400000
371.792572	154.720000
371.886108	154.920000
371.979614	154.680000
372.073120	155.460000
372.166656	154.920000
372.260162	155.300000
372.353668	154.940000
372.447205	154.620000
372.540710	154.320000
372.634277	154.500000
372.727753	154.120000
372.821320	154.280000
372.914795	154.620000
373.008362	154.380000
373.101837	154.520000
373.195404	154.580000
373.288879	154.560000
373.382446	155.180000
373.475922	155.020000
373.569489	155.380000
373.662964	155.560000
373.756531	155.640000
373.850037	155.580000
373.943573	155.740000
374.037109	154.620000
374.130615	154.780000
374.224152	154.860000
374.317657	154.520000
374.411194	155.240000
374.504730	155.480000
374.598236	155.160000
374.691772	154.660000
374.785309	154.580000
374.878815	153.180000
374.972351	153.600000
375.065887	153.320000
375.159454	154.460000
375.252930	154.020000
375.346497	154.740000
375.440002	155.080000
375.533569	155.360000
375.627045	154.580000
375.720612	155.060000
375.814117	155.360000
375.907684	155.120000
376.001160	154.520000
376.094727	154.020000
376.188232	154.740000
376.281799	154.600000
376.375336	154.540000
376.468872	155.600000
376.562408	156.420000
376.655914	155.700000
376.749451	155.780000
376.842987	156.000000
376.936523	155.120000
377.030060	154.780000
377.123596	155.000000
377.217133	154.240000
377.310669	154.040000
377.404205	154.520000
377.497772	154.920000
377.591278	154.760000
377.684845	155.800000
377.778351	156.280000
377.871918	156.020000
377.965424	155.200000
378.058990	155.020000
378.152496	154.600000
378.246063	154.500000
378.339569	155.060000
378.433136	155.460000
378.526642	155.660000
378.620209	155.720000
378.713745	155.060000
378.807312	155.220000
378.900848	155.000000
378.994385	155.040000
379.087921	154.000000
379.181458	154.460000
379.274994	153.320000
379.368530	153.080000
379.462097	153.000000
379.555634	154.120000
379.649170	153.520000
379.742706	153.680000
379.836273	153.920000
379.929810	153.880000
380.023376	153.200000
380.116882	153.140000
380.210449	153.340000
380.303986	152.860000
380.397552	152.360000
380.491058	152.780000
380.584656	152.900000
380.678162	153.320000
380.771729	153.800000
380.865265	154.780000
380.958832	155.020000
381.052368	155.480000
381.145935	155.740000
381.239471	156.180000
381.333008	155.940000
381.426575	155.780000
381.520111	155.940000
381.613647	155.900000
381.707214	155.640000
381.800751	154.940000
381.894318	155.340000
381.987854	154.760000
382.081421	154.240000
382.174988	153.980000
382.268524	154.080000
382.362091	153.720000
382.455627	154.620000
382.549194	154.400000
382.642731	154.280000
382.736298	154.400000
382.829834	154.100000
382.923401	154.420000
383.016937	154.800000
383.110504	155.260000
383.204041	155.260000
383.297607	155.940000
383.391174	154.660000
383.484741	155.260000
383.578278	154.940000
383.671844	154.420000
383.765411	153.380000
383.858948	154.100000
383.952515	153.460000
384.046051	153.940000
384.139618	154.840000
384.233185	155.540000
384.326721	154.960000
384.420288	155.440000
384.513855	155.100000
384.607422	155.040000
384.700989	155.100000
384.794525	154.800000
384.888123	154.760000
384.981659	155.020000
385.075226	154.580000
385.168762	154.220000
385.262360	154.500000
385.355896	153.640000
385.449463	153.400000
385.542999	153.340000
385.636597	154.140000
385.730164	154.560000
385.823730	154.580000
385.917267	154.240000
386.010834	154.460000
386.104401	154.200000
386.197968	154.300000
386.291534	154.960000
386.385101	155.060000
386.478668	155.420000
386.572235	155.200000
386.665802	154.460000
386.759338	153.980000
386.852905	154.000000
386.946472	153.620000
387.040070	153.900000
387.133606	154.520000
387.227203	154.320000
387.320740	154.680000
387.414337	154.560000
387.507874	154.280000
387.601471	153.940000
387.695007	153.780000
387.788605	153.600000
387.882141	153.800000
387.975739	153.880000
388.069275	153.740000
388.162872	154.300000
388.256439	154.080000
388.350037	153.580000
388.443604	153.580000
388.537170	153.840000
388.630737	154.380000
388.724304	154.480000
388.817871	155.060000
388.911438	154.820000
389.005005	155.020000
389.098602	154.820000
389.192169	154.560000
389.285736	154.840000
389.379333	154.940000
389.472870	154.680000
389.566467	154.560000
389.660034	154.960000
389.753632	154.320000
389.847168	154.760000
389.940765	154.920000
390.034332	155.040000
390.127930	154.420000
390.221466	154.620000
390.315063	153.940000
390.408630	152.960000
390.502228	151.820000
390.595795	152.360000
390.689362	152.340000
390.782959	152.840000
390.876526	153.680000
390.970093	154.100000
391.063690	154.800000
391.157257	155.000000
391.250824	155.420000
391.344421	155.440000
391.437988	156.260000
391.531555	155.980000
391.625153	156.100000
391.718750	155.860000
391.812317	155.740000
391.905914	155.080000
391.999481	154.880000
392.093079	154.660000
392.186615	154.840000
392.280243	154.880000
392.373779	154.960000
392.467407	155.640000
392.560944	155.580000
392.654572	155.180000
392.748108	155.260000
392.841736	155.480000
392.935303	154.580000
393.028900	154.640000
393.122467	154.500000
393.216064	153.900000
393.309631	153.320000
393.403229	153.140000
393.496796	153.020000
393.590393	152.560000
393.683990	153.160000
393.777557	153.880000
393.871155	154.320000
393.964722	154.700000
394.058350	155.000000
394.151917	154.840000
394.245514	154.460000
394.339081	154.760000
394.432678	154.720000
394.526245	154.640000
394.619873	154.440000
394.713409	154.620000
394.807037	154.140000
394.900604	154.380000
394.994202	154.620000
395.087769	154.960000
395.181396	154.760000
395.274994	155.440000
395.368561	154.580000
395.462158	154.660000
395.555756	154.280000
395.649353	154.600000
395.742920	153.880000
395.836517	154.620000
395.930115	153.740000
396.023712	154.040000
396.117279	154.000000
396.210876	153.560000
396.304474	153.500000
396.398071	154.240000
396.491669	154.660000
396.585266	154.160000
396.678833	154.620000
396.772461	154.460000
396.866028	154.040000
396.959656	153.620000
397.053223	154.180000
397.146851	153.760000
397.240417	154.100000
397.334015	155.020000
397.427582	154.820000
397.521210	154.540000
397.614807	155.080000
397.708405	155.080000
397.802002	154.520000
397.895599	155.420000
397.989197	155.580000
398.082794	155.260000
398.176392	155.040000
398.269989	154.940000
398.363586	154.600000
398.457184	154.960000
398.550781	155.500000
398.644379	155.480000
398.737976	155.760000
398.831573	155.820000
398.925201	155.720000
399.018768	156.440000
399.112396	157.380000
399.205963	159.220000
399.299591	161.440000
399.393158	164.460000
399.486786	168.640000
399.580353	174.980000
399.673981	184.120000
399.767578	198.580000
399.861206	217.500000
399.954773	237.640000
400.048401	254.300000
400.141998	262.400000
400.235596	260.120000
400.329193	246.760000
400.422791	227.020000
400.516418	206.060000
400.610016	188.920000
400.703613	177.160000
400.797211	169.200000
400.890808	165.000000
400.984436	163.080000
401.078033	161.960000
401.171631	159.720000
401.265259	159.380000
401.358826	159.100000
401.452484	158.840000
401.546051	158.660000
401.639679	158.340000
401.733246	157.920000
401.826904	157.100000
401.920471	155.580000
402.014099	155.120000
402.107697	155.200000
402.201324	155.140000
402.294891	155.340000
402.388550	156.080000
402.482147	156.120000
402.575745	155.600000
402.669373	155.080000
402.762970	154.500000
402.856567	154.280000
402.950195	154.360000
403.043793	154.500000
403.137390	155.400000
403.231018	155.000000
403.324615	155.820000
403.418243	155.100000
403.511841	155.400000
403.605469	154.920000
403.699066	155.500000
403.792694	155.180000
403.886292	155.560000
403.979919	155.320000
404.073517	155.160000
404.167145	155.620000
404.260712	155.600000
404.354370	155.400000
404.447937	155.600000
404.541595	155.920000
404.635162	155.800000
404.728821	156.100000
404.822418	155.880000
404.916046	155.760000
405.009644	155.600000
405.103271	155.940000
405.196899	155.240000
405.290497	155.620000
405.384125	155.620000
405.477722	155.260000
405.571350	154.300000
405.664948	154.880000
405.758575	154.560000
405.852203	153.960000
405.945801	154.100000
406.039429	154.420000
406.133057	153.660000
406.226654	153.620000
406.320312	153.700000
406.413879	153.940000
406.507538	154.260000
406.601135	154.240000
406.694763	154.720000
406.788361	154.720000
406.882019	154.540000
406.975586	154.700000
407.069244	155.280000
407.162872	154.800000
407.256470	154.760000
407.350098	154.860000
407.443726	154.260000
407.537323	153.640000
407.630951	154.380000
407.724579	154.200000
407.818207	154.520000
407.911804	154.460000
408.005432	154.480000
408.099060	154.100000
408.192688	154.780000
408.286285	154.260000
408.379913	153.960000
408.473572	154.140000
408.567169	153.680000
408.660828	153.540000
408.754395	153.240000
408.848053	153.580000
408.941650	153.720000
409.035309	153.500000
409.128906	153.300000
409.222565	153.900000
409.316132	154.100000
409.409790	153.740000
409.503387	153.880000
409.597046	154.000000
409.690674	153.980000
409.784302	153.780000
409.877930	153.760000
409.971558	154.040000
410.065186	154.080000
410.158783	153.900000
410.252411	153.860000
410.346039	154.240000
410.439667	154.220000
410.533295	154.320000
410.626923	154.600000
410.720551	154.480000
410.814209	154.860000
410.907806	154.900000
411.001465	154.260000
411.095062	154.480000
411.188721	154.960000
411.282318	154.420000
411.375977	153.880000
411.469574	154.460000
411.563232	154.060000
411.656830	153.620000
411.750488	153.680000
411.844086	154.300000
411.937744	154.420000
412.031372	154.220000
412.125000	154.320000
412.218628	154.260000
412.312256	155.000000
412.405884	155.460000
412.499512	155.500000
412.593170	155.940000
412.686798	156.080000
412.780426	155.060000
412.874054	154.740000
412.967682	154.820000
413.061310	154.820000
413.154968	155.200000
413.248566	155.360000
413.342224	154.860000
413.435852	154.820000
413.529510	154.520000
413.623108	153.720000
413.716766	153.440000
413.810364	154.200000
413.904022	153.800000
413.997650	153.480000
414.091309	154.440000
414.184906	154.720000
414.278564	154.080000
414.372192	154.600000
414.465851	154.800000
414.559479	154.180000
414.653107	154.960000
414.746735	154.860000
414.840393	154.980000
414.934021	155.300000
415.027649	154.880000
415.121277	154.580000
415.214935	155.300000
415.308563	154.900000
415.402191	154.380000
415.495850	154.780000
415.589478	154.300000
415.683136	153.740000
415.776733	154.380000
415.870422	155.020000
415.964020	154.600000
416.057678	154.500000
416.151306	154.800000
416.244965	154.360000
416.338562	154.000000
416.432251	154.940000
416.525848	155.960000
416.619507	155.700000
416.713165	156.340000
416.806793	156.280000
416.900421	156.000000
416.994080	155.020000
417.087708	155.000000
417.181366	154.460000
417.274994	154.600000
417.368622	154.700000
417.462280	155.700000
417.555908	155.900000
417.649567	155.820000
417.743195	155.740000
417.836853	155.600000
417.930481	155.240000
418.024170	155.320000
418.117767	155.980000
418.211426	156.500000
418.305054	156.440000
418.398712	155.680000
418.492340	155.720000
418.585999	155.700000
418.679626	155.480000
418.773285	155.480000
418.866913	155.980000
418.960571	156.060000
419.054230	155.900000
419.147858	156.000000
419.241516	156.400000
419.335144	156.300000
419.428802	155.760000
419.522461	155.280000
419.616089	154.480000
419.709747	154.460000
419.803375	154.380000
419.897034	154.420000
419.990662	154.520000
420.084320	155.500000
420.177979	155.540000
420.271606	155.880000
420.365295	156.640000
420.458893	156.720000
420.552582	156.500000
420.646210	156.400000
420.739868	155.920000
420.833496	155.320000
420.927155	154.880000
421.020782	154.560000
421.114471	153.880000
421.208069	154.160000
421.301758	154.360000
421.395386	154.640000
421.489044	154.800000
421.582703	155.100000
421.676361	155.440000
421.769989	155.060000
421.863647	155.400000
421.957306	155.280000
422.050934	155.460000
422.144592	155.400000
422.238251	155.160000
422.331909	155.060000
422.425537	155.040000
422.519196	155.220000
422.612854	154.560000
422.706543	154.640000
422.800140	154.820000
422.893829	154.620000
422.987457	154.340000
423.081146	154.820000
423.174744	155.680000
423.268433	155.120000
423.362061	154.960000
423.455750	154.640000
423.549347	154.560000
423.643036	153.800000
423.736664	154.460000
423.830353	154.840000
423.924011	155.740000
424.017639	155.300000
424.111298	155.520000
424.204956	155.200000
424.298615	155.260000
424.392273	154.500000
424.485931	154.840000
424.579559	154.700000
424.673218	154.540000
424.766876	154.580000
424.860535	154.260000
424.954193	154.280000
425.047882	154.740000
425.141510	154.900000
425.235199	154.940000
425.328796	155.020000
425.422485	154.720000
425.516113	153.960000
425.609802	154.040000
425.703430	154.320000
425.797119	154.440000
425.890747	154.800000
425.984436	155.240000
426.078064	155.200000
426.171753	154.800000
426.265411	154.860000
426.359070	155.100000
426.452728	155.240000
426.546356	155.320000
426.640015	155.300000
426.733673	155.380000
426.827332	154.640000
426.920990	155.400000
427.014648	154.920000
427.108307	155.260000
427.201965	155.820000
427.295624	156.500000
427.389282	155.620000
427.482941	156.180000
427.576630	155.920000
427.670258	154.980000
427.763947	154.700000
427.857574	154.880000
427.951263	155.000000
428.044922	155.000000
428.138611	155.380000
428.232239	155.840000
428.325928	155.880000
428.419556	155.780000
428.513245	155.700000
428.606903	156.060000
428.700562	155.380000
428.794220	155.000000
428.887878	154.440000
428.981537	154.720000
429.075195	154.820000
429.168854	155.740000
429.262512	155.700000
429.356201	156.140000
429.449860	155.740000
429.543518	155.440000
429.637177	155.240000
429.730835	155.520000
429.824493	155.240000
429.918182	155.820000
430.011810	155.540000
430.105530	154.820000
430.199158	154.980000
430.292847	155.040000
430.386475	154.560000
430.480164	154.560000
430.573792	154.640000
430.667511	154.220000
430.761139	154.400000
430.854828	154.840000
430.948456	155.000000
431.042145	155.740000
431.135834	155.740000
431.229492	155.800000
431.323151	155.580000
431.416809	155.580000
431.510468	155.120000
431.604156	155.300000
431.697815	155.400000
431.791473	155.200000
431.885132	154.680000
431.978821	155.160000
432.072479	155.300000
432.166138	155.580000
432.259827	155.620000
432.353485	156.420000
432.447174	156.340000
432.540802	156.380000
432.634491	156.480000
432.728149	156.740000
432.821838	157.280000
432.915466	156.660000
433.009186	156.520000
433.102814	155.500000
433.196503	155.120000
433.290131	154.320000
433.383850	154.740000
433.477509	154.920000
433.571167	156.060000
433.664856	156.540000
433.758514	157.140000
433.852173	157.360000
433.945862	156.920000
434.039520	156.540000
434.133179	155.760000
434.226868	155.240000
434.320526	154.340000
434.414185	154.980000
434.507874	154.440000
434.601562	155.140000
434.695221	155.220000
434.788910	155.860000
434.882538	155.980000
434.976257	155.940000
435.069885	155.740000
435.163574	156.020000
435.257233	155.440000
435.350922	155.180000
435.444580	154.800000
435.538269	154.800000
435.631897	155.200000
435.725616	155.980000
435.819275	156.420000
435.912964	157.240000
436.006622	157.800000
436.100311	157.080000
436.193970	156.300000
436.287628	155.960000
436.381317	155.660000
436.474976	154.900000
436.568665	154.620000
436.662323	155.080000
436.756012	154.920000
436.849670	155.120000
436.943390	155.140000
437.037018	155.280000
437.130737	155.200000
437.224365	154.940000
437.318085	154.700000
437.411713	154.680000
437.505432	155.020000
437.599060	155.420000
437.692780	156.160000
437.786407	156.460000
437.880127	156.400000
437.973755	156.280000
438.067474	155.700000
438.161133	155.300000
438.254822	155.780000
438.348480	155.640000
438.442169	156.140000
438.535828	156.520000
438.629517	156.240000
438.723175	155.220000
438.816864	156.000000
438.910553	155.280000
439.004211	155.160000
439.097900	154.820000
439.191559	155.200000
439.285248	154.300000
439.378906	154.520000
439.472626	154.200000
439.566284	154.280000
439.659973	154.520000
439.753632	154.540000
439.847321	154.760000
439.940979	154.720000
440.034698	155.120000
440.128326	154.680000
440.222046	154.680000
440.315674	153.940000
440.409393	154.180000
440.503082	154.080000
440.596741	154.300000
440.690430	154.560000
440.784088	154.960000
440.877777	154.460000
440.971466	154.360000
441.065125	153.940000
441.158813	153.880000
441.252502	153.760000
441.346161	154.220000
441.439850	154.620000
441.533539	154.660000
441.627197	154.920000
441.720886	154.800000
441.814606	155.160000
441.908234	155.360000
442.001953	155.220000
442.095612	155.200000
442.189301	155.540000
442.282959	155.420000
442.376678	154.300000
442.470306	155.400000
442.564026	154.960000
442.657684	155.060000
442.751404	155.020000
442.845032	156.100000
442.938751	155.000000
443.032440	155.280000
443.126099	154.640000
443.219788	155.060000
443.313477	154.740000
443.407166	155.600000
443.500824	155.760000
443.594513	156.160000
443.688202	155.620000
443.781891	155.080000
443.875549	154.200000
443.969238	154.340000
444.062927	154.380000
444.156647	154.240000
444.250275	154.880000
444.343994	155.500000
444.437653	155.340000
444.531372	155.140000
444.625031	154.860000
444.718719	154.460000
444.812378	153.900000
444.906097	153.520000
444.999756	153.120000
445.093445	153.480000
445.187103	153.600000
445.280823	154.380000
445.374512	154.460000
445.468201	155.000000
445.561859	154.580000
445.655548	154.600000
445.749237	153.880000
445.842926	154.060000
445.936615	154.460000
446.030304	154.300000
446.123962	154.620000
446.217651	154.700000
446.311340	154.900000
446.405029	153.960000
446.498749	154.280000
446.592407	153.880000
446.686096	154.160000
446.779755	154.060000
446.873474	154.700000
446.967133	155.080000
447.060852	154.820000
447.154510	154.860000
447.248230	154.660000
447.341858	154.420000
447.435577	153.840000
447.529236	153.700000
447.622955	153.300000
447.716644	153.400000
447.810333	153.660000
447.904022	154.400000
447.997711	154.340000
448.091400	154.980000
448.185059	154.900000
448.278748	154.800000
448.372437	154.200000
448.466125	154.940000
448.559814	154.540000
448.653503	154.940000
448.747192	155.200000
448.840912	155.720000
448.934570	155.200000
449.028290	155.820000
449.121948	155.540000
449.215637	154.980000
449.309296	154.400000
449.403015	154.460000
449.496674	154.000000
449.590393	154.080000
449.684052	154.160000
449.777771	155.240000
449.871429	154.740000
449.965149	154.640000
450.058838	154.700000
450.152527	155.400000
450.246216	154.660000
450.339905	155.280000
450.433594	154.980000
450.527283	155.580000
450.620972	155.160000
450.714661	155.220000
450.808350	155.340000
450.902039	155.940000
450.995728	155.720000
451.089417	155.060000
451.183105	154.940000
451.276794	155.440000
451.370514	154.900000
451.464172	153.820000
451.557892	154.320000
451.651550	154.660000
451.745270	153.520000
451.838928	152.760000
451.932648	153.340000
452.026306	153.520000
452.120026	152.800000
452.213684	153.620000
452.307404	154.440000
452.401062	154.300000
452.494781	154.500000
452.588470	154.860000
452.682159	154.380000
452.775848	154.340000
452.869537	153.920000
452.963226	153.180000
453.056915	152.940000
453.150604	152.980000
453.244293	153.260000
453.337982	154.060000
453.431671	154.600000
453.525360	155.080000
453.619049	155.340000
453.712769	154.940000
453.806427	154.280000
453.900146	153.760000
453.993805	153.680000
454.087555	153.860000
454.181213	154.140000
454.274933	154.480000
454.368591	154.840000
454.462311	154.660000
454.555969	154.220000
454.649689	155.060000
454.743347	154.960000
454.837067	155.540000
454.930756	155.980000
455.024445	156.180000
455.118134	155.520000
455.211853	155.560000
455.305542	155.080000
455.399231	154.660000
455.492920	154.360000
455.586609	153.860000
455.680298	154.160000
455.773987	153.660000
455.867676	153.880000
455.961365	154.380000
456.055084	154.620000
456.148773	154.000000
456.242493	154.520000
456.336151	154.200000
456.429871	154.180000
456.523529	154.600000
456.617249	154.720000
456.710907	154.960000
456.804626	155.000000
456.898315	154.420000
456.992035	153.980000
457.085693	153.580000
457.179413	152.820000
457.273102	153.960000
457.366791	154.520000
457.460480	155.280000
457.554199	156.420000
457.647888	156.660000
457.741577	155.960000
457.835266	155.760000
457.928955	155.500000
458.022644	155.520000
458.116364	156.060000
458.210052	155.900000
458.303741	156.420000
458.397461	155.620000
458.491119	154.780000
458.584839	154.440000
458.678528	154.080000
458.772247	153.160000
458.865906	153.480000
458.959625	154.180000
459.053284	153.920000
459.147003	153.820000
459.240692	154.780000
459.334412	154.960000
459.428070	154.520000
459.521790	154.580000
459.615479	154.580000
459.709198	154.600000
459.802887	153.880000
459.896576	153.640000
459.990265	153.820000
460.083954	154.260000
460.177673	153.420000
460.271362	154.340000
460.365051	154.420000
460.458740	154.280000
460.552429	153.840000
460.646149	154.020000
460.739838	153.560000
460.833527	153.980000
460.927246	153.780000
461.020905	153.760000
461.114655	154.160000
461.208313	154.460000
461.302032	153.660000
461.395691	154.040000
461.489441	154.080000
461.583099	153.500000
461.676819	152.920000
461.770477	153.840000
461.864197	153.400000
461.957916	153.180000
462.051605	153.000000
462.145294	154.140000
462.238983	153.420000
462.332703	153.960000
462.426392	154.660000
462.520081	154.880000
462.613770	154.140000
462.707489	154.480000
462.801178	154.040000
462.894867	153.800000
462.988556	153.620000
463.082275	153.700000
463.175964	153.480000
463.269684	153.980000
463.363342	154.080000
463.457092	153.620000
463.550751	153.960000
463.644470	154.320000
463.738129	154.040000
463.831879	153.980000
463.925537	155.200000
464.019257	154.960000
464.112946	154.540000
464.206665	154.660000
464.300323	154.540000
464.394043	153.860000
464.487762	153.600000
464.581451	154.140000
464.675140	153.920000
464.768829	154.280000
464.862549	154.680000
464.956238	154.940000
465.049927	154.860000
465.143646	154.900000
465.237335	154.620000
465.331024	154.820000
465.424713	154.640000
465.518433	154.760000
465.612152	154.640000
465.705811	154.800000
465.799561	154.720000
465.893219	154.700000
465.986938	154.320000
466.080597	154.240000
466.174347	154.640000
466.268005	154.740000
466.361725	154.780000
466.455414	155.000000
466.549133	155.100000
466.642792	154.760000
466.736542	154.280000
466.830231	154.380000
466.923920	154.200000
467.017609	154.220000
467.111328	153.880000
467.205017	153.860000
467.298706	153.660000
467.392426	153.800000
467.486115	154.180000
467.579803	153.860000
467.673523	154.180000
467.767212	154.660000
467.860901	154.640000
467.954651	154.420000
468.048309	154.860000
468.142029	154.980000
468.235718	154.720000
468.329437	154.400000
468.423096	154.140000
468.516846	154.180000
468.610504	153.380000
468.704224	152.860000
468.797913	152.820000
468.891632	153.120000
468.985291	153.060000
469.079010	153.540000
469.172729	153.660000
469.266418	154.460000
469.360107	154.380000
469.453827	154.220000
469.547516	154.280000
469.641205	154.780000
469.734924	154.820000
469.828613	155.300000
469.922302	155.720000
470.016022	155.620000
470.109711	155.380000
470.203430	154.640000
470.297150	153.780000
470.390808	153.840000
470.484558	153.720000
470.578217	153.960000
470.671936	154.280000
470.765625	155.380000
470.859344	154.880000
470.953003	155.240000
471.046753	154.820000
471.140411	154.260000
471.234131	154.040000
471.327820	154.660000
471.421539	154.480000
471.515228	154.340000
471.608948	154.840000
471.702637	154.220000
471.796326	153.680000
471.890045	153.920000
471.983734	154.260000
472.077423	154.000000
472.171143	154.400000
472.264832	154.260000
472.358521	154.080000
472.452240	153.760000
472.545929	154.480000
472.639648	154.360000
472.733337	155.160000
472.827057	155.360000
472.920746	155.680000
473.014465	155.580000
473.108124	155.700000
473.201874	155.540000
473.295532	155.360000
473.389252	155.860000
473.482941	155.740000
473.576660	155.300000
473.670319	154.980000
473.764069	155.320000
473.857727	155.100000
473.951477	155.540000
474.045166	156.280000
474.138855	156.240000
474.232574	155.900000
474.326263	156.080000
474.419952	155.820000
474.513672	155.660000
474.607361	155.540000
474.701050	155.760000
474.794769	155.960000
474.888458	155.940000
474.982178	155.720000
475.075867	155.780000
475.169586	155.640000
475.263275	154.780000
475.356995	154.440000
475.450653	154.240000
475.544403	154.220000
475.638062	155.060000
475.731812	155.020000
475.825470	155.080000
475.919189	155.360000
476.012878	155.580000
476.106598	154.620000
476.200256	155.020000
476.294006	155.220000
476.387695	155.240000
476.481384	154.840000
476.575104	155.040000
476.668793	154.740000
476.762512	154.080000
476.856201	154.420000
476.949890	154.220000
477.043610	153.760000
477.137299	153.780000
477.230988	154.440000
477.324707	154.180000
477.418396	154.820000
477.512146	154.820000
477.605804	154.800000
477.699524	154.800000
477.793213	154.220000
477.886932	154.100000
477.980591	154.120000
478.074341	153.880000
478.167999	153.060000
478.261749	153.600000
478.355408	153.540000
478.449127	153.880000
478.542816	155.000000
478.636536	156.340000
478.730225	156.300000
478.823944	156.520000
478.917633	156.620000
479.011322	156.400000
479.105042	156.020000
479.198730	156.180000
479.292450	156.060000
479.386139	156.060000
479.479828	155.820000
479.573547	155.920000
479.667267	155.480000
479.760925	155.240000
479.854675	155.140000
479.948334	155.340000
480.042084	154.420000
480.135742	154.800000
480.229462	154.420000
480.323151	154.700000
480.416870	154.040000
480.510529	154.540000
480.604279	154.000000
480.697937	155.020000
480.791656	154.140000
480.885345	154.400000
480.979065	154.280000
481.072754	155.080000
481.166473	154.960000
481.260132	155.540000
481.353882	155.240000
481.447540	155.260000
481.541260	154.760000
481.635010	153.920000
481.728668	153.660000
481.822388	153.600000
481.916077	153.780000
482.009796	153.560000
482.103485	154.240000
482.197205	154.420000
482.290863	154.840000
482.384613	154.460000
482.478271	154.460000
482.571991	154.500000
482.665680	154.660000
482.759399	155.240000
482.853058	155.900000
482.946808	155.720000
483.040466	155.240000
483.134216	154.680000
483.227875	154.180000
483.321594	154.160000
483.415283	154.500000
483.509003	154.800000
483.602661	154.980000
483.696411	155.020000
483.790070	154.760000
483.883789	154.680000
483.977478	154.840000
484.071198	155.020000
484.164917	154.060000
484.258606	153.740000
484.352325	154.280000
484.445984	154.100000
484.539734	153.980000
484.633392	154.100000
484.727142	154.420000
484.820801	153.900000
484.914520	153.760000
485.008209	153.980000
485.101929	154.580000
485.195587	154.360000
485.289337	154.280000
485.382996	154.320000
485.476715	154.420000
485.570404	154.780000
485.664124	154.780000
485.757782	155.500000
485.851532	155.220000
485.945190	154.740000
486.038910	154.540000
486.132599	154.940000
486.226318	154.020000
486.319977	154.220000
486.413727	154.980000
486.507446	154.600000
486.601105	153.940000
486.694855	154.240000
486.788513	154.120000
486.882233	153.860000
486.975922	153.960000
487.069641	154.040000
487.163300	153.880000
487.257050	155.240000
487.350708	155.040000
487.444427	154.680000
487.538116	154.680000
487.631836	154.460000
487.725494	153.800000
487.819214	153.820000
487.912903	154.060000
488.006622	154.660000
488.100281	155.120000
488.194031	154.520000
488.287689	154.680000
488.381409	155.520000
488.475098	154.920000
488.568817	154.700000
488.662476	154.200000
488.756226	153.340000
488.849945	152.060000
488.943604	152.220000
489.037354	152.720000
489.131012	153.320000
489.224731	153.760000
489.318390	154.160000
489.412140	154.200000
489.505798	153.740000
489.599518	153.480000
489.693207	153.860000
489.786926	153.840000
489.880585	153.700000
489.974335	153.880000
490.067993	155.000000
490.161713	154.960000
490.255371	155.760000
490.349121	156.000000
490.442780	155.700000
490.536499	154.600000
490.630188	154.540000
490.723907	153.760000
490.817566	154.120000
490.911285	154.480000
491.004974	154.420000
491.098694	154.060000
491.192413	154.600000
491.286102	154.000000
491.379822	153.920000
491.473480	154.140000
491.567200	154.300000
491.660889	153.700000
491.754608	154.000000
491.848267	154.000000
491.941986	153.900000
492.035675	154.120000
492.129395	154.480000
492.223053	154.240000
492.316772	154.340000
492.410461	154.320000
492.504181	154.000000
492.597839	153.700000
492.691559	153.500000
492.785248	153.500000
492.878967	153.740000
492.972626	153.840000
493.066345	153.940000
493.160034	153.480000
493.253754	153.140000
493.347412	152.680000
493.441132	152.940000
493.534882	153.400000
493.628540	154.300000
493.722260	154.760000
493.815918	155.420000
493.909668	156.000000
494.003326	156.240000
494.097046	155.860000
494.190704	155.540000
494.284454	155.240000
494.378113	154.980000
494.471832	154.660000
494.565491	154.580000
494.659210	154.520000
494.752899	154.680000
494.846619	154.460000
494.940277	154.480000
495.033997	154.460000
495.127686	154.500000
495.221405	154.300000
495.315063	154.320000
495.408783	154.180000
495.502441	154.460000
495.596191	154.320000
495.689850	154.100000
495.783569	154.240000
495.877228	154.340000
495.970947	153.840000
496.064697	154.060000
496.158356	155.280000
496.252075	154.780000
496.345734	154.500000
496.439453	155.920000
496.533142	156.020000
496.626862	155.720000
496.720520	155.940000
496.814240	156.140000
496.907898	155.160000
497.001617	155.200000
497.095306	154.220000
497.189026	154.100000
497.282684	154.280000
497.376404	154.460000
497.470062	154.120000
497.563782	154.640000
497.657471	154.860000
497.751190	154.540000
497.844849	154.640000
497.938568	155.120000
498.032227	155.120000
498.125946	154.900000
498.219635	154.640000
498.313354	154.760000
498.407074	154.500000
498.500732	154.800000
498.594452	154.820000
498.688110	154.860000
498.781830	154.480000
498.875519	154.200000
498.969238	153.600000
499.062897	153.560000
499.156616	154.320000
499.250275	154.100000
499.343994	153.980000
499.437653	153.900000
499.531372	153.860000
499.625061	153.900000
499.718781	154.160000
499.812439	154.900000
499.906158	154.900000
499.999817	154.700000
500.093536	154.320000
500.187195	154.620000
500.280914	154.280000
500.374573	154.720000
500.468323	154.700000
500.561981	154.840000
500.655701	154.300000
500.749420	154.260000
500.843079	154.320000
500.936798	154.600000
501.030457	154.780000
501.124176	155.300000
501.217834	155.080000
501.311554	154.880000
501.405212	154.760000
501.498962	153.880000
501.592621	153.600000
501.686340	153.820000
501.779999	153.840000
501.873718	154.260000
501.967377	154.480000
502.061096	154.700000
502.154755	154.140000
502.248474	154.240000
502.342133	154.140000
502.435852	154.240000
502.529510	155.000000
502.623230	156.080000
502.716888	155.640000
502.810608	155.520000
502.904266	156.120000
502.997986	155.320000
503.091705	154.760000
503.185364	154.800000
503.279083	155.160000
503.372772	154.620000
503.466492	153.900000
503.560150	153.680000
503.653870	154.000000
503.747528	153.680000
503.841248	153.700000
503.934906	154.300000
504.028625	154.160000
504.122284	154.320000
504.216003	155.000000
504.309662	154.920000
504.403381	155.340000
504.497040	155.460000
504.590759	155.100000
504.684418	154.540000
504.778137	155.120000
504.871796	155.120000
504.965515	155.340000
505.059174	155.440000
505.152893	154.740000
505.246521	154.120000
505.340240	153.580000
505.433899	153.500000
505.527618	153.640000
505.621338	154.400000
505.714996	154.340000
505.808716	154.120000
505.902374	154.320000
505.996094	154.560000
506.089752	154.100000
506.183472	154.120000
506.277130	154.440000
506.370850	154.640000
506.464508	154.060000
506.558228	154.340000
506.651886	154.140000
506.745605	154.240000
506.839264	154.140000
506.932983	154.540000
507.026611	154.540000
507.120331	155.040000
507.213989	154.480000
507.307709	154.740000
507.401367	154.860000
507.495087	155.580000
507.588745	155.240000
507.682465	156.240000
507.776123	155.560000
507.869843	155.240000
507.963531	154.900000
508.057190	155.360000
508.150909	154.360000
508.244568	154.860000
508.338287	154.760000
508.431946	154.280000
508.525665	154.120000
508.619324	154.180000
508.713013	154.300000
508.806671	154.800000
508.900391	155.600000
508.994049	155.520000
509.087769	155.600000
509.181427	155.200000
509.275146	154.640000
509.368774	153.780000
509.462494	153.980000
509.556152	154.120000
509.649872	154.740000
509.743530	155.100000
509.837250	155.300000
509.930878	155.040000
510.024597	155.160000
510.118256	154.740000
510.211975	154.660000
510.305695	154.580000
510.399353	154.960000
510.493042	155.600000
510.586700	155.600000
510.680420	156.100000
510.774078	155.920000
510.867798	155.640000
510.961426	154.900000
511.055145	154.780000
511.148804	153.900000
511.242523	154.460000
511.336151	154.740000
511.429871	155.060000
511.523529	154.840000
511.617249	154.900000
511.710876	154.260000
511.804596	153.560000
511.898254	153.140000
511.991974	153.720000
512.085632	153.720000
512.179321	154.100000
512.272949	154.880000
512.366699	155.440000
512.460327	155.180000
512.554077	156.360000
512.647766	156.340000
512.741394	155.880000
512.835144	156.120000
512.928772	155.760000
513.022461	155.160000
513.116150	154.780000
513.209839	155.580000
513.303467	154.800000
513.397217	154.700000
513.490845	154.160000
513.584595	154.280000
513.678223	153.520000
513.771912	152.960000
513.865601	153.020000
513.959290	152.880000
514.052917	152.940000
514.146667	153.440000
514.240295	154.560000
514.333984	155.040000
514.427673	155.080000
514.521362	155.600000
514.614990	155.020000
514.708740	154.980000
514.802368	155.060000
514.896057	155.580000
514.989746	156.120000
515.083435	156.220000
515.177124	156.420000
515.270752	156.080000
515.364502	155.680000
515.458130	155.040000
515.551819	154.540000
515.645508	153.980000
515.739197	153.880000
515.832825	154.200000
515.926575	153.780000
516.020203	154.520000
516.113892	155.180000
516.207520	155.280000
516.301270	155.120000
516.394897	155.560000
516.488586	156.000000
516.582275	155.920000
516.675964	155.380000
516.769592	155.500000
516.863281	155.940000
516.956970	155.800000
517.050659	155.520000
517.144287	156.040000
517.238037	155.740000
517.331665	154.960000
517.425354	154.340000
517.519043	154.000000
517.612732	154.600000
517.706421	154.680000
517.800049	154.620000
517.893738	154.460000
517.987427	154.600000
518.081116	154.020000
518.174744	153.640000
518.268433	154.040000
518.362122	154.900000
518.455811	154.820000
518.549438	155.920000
518.643127	157.060000
518.736816	156.540000
518.830505	155.860000
518.924133	155.760000
519.017822	154.800000
519.111511	154.340000
519.205200	155.020000
519.298828	155.020000
519.392517	154.680000
519.486206	155.180000
519.579895	155.340000
519.673523	154.880000
519.767212	155.040000
519.860901	155.960000
519.954590	155.400000
520.048279	154.680000
520.141907	154.620000
520.235596	155.580000
520.329224	155.320000
520.422974	155.460000
520.516602	155.820000
520.610291	155.440000
520.703918	154.840000
520.797607	154.540000
520.891296	154.320000
520.984985	154.120000
521.078613	155.200000
521.172302	154.420000
521.265930	155.380000
521.359680	155.940000
521.453308	155.640000
521.546997	155.140000
521.640625	155.360000
521.734314	154.500000
521.827942	154.100000
521.921692	154.740000
522.015320	154.720000
522.109009	154.580000
522.202698	154.420000
522.296326	154.140000
522.390015	154.260000
522.483704	154.500000
522.577393	154.320000
522.671021	154.280000
522.764709	154.280000
522.858337	154.800000
522.952026	154.760000
523.045654	155.760000
523.139404	156.400000
523.233032	156.720000
523.326721	156.040000
523.420349	156.040000
523.514038	155.300000
523.607666	155.380000
523.701355	154.860000
523.795044	154.960000
523.888733	154.980000
523.982361	155.160000
524.076050	154.720000
524.169678	155.500000
524.263367	155.180000
524.356995	154.620000
524.450684	154.720000
524.544373	154.420000
524.638062	154.240000
524.731750	154.600000
524.825378	154.940000
524.919067	154.480000
525.012695	154.760000
525.106384	154.500000
525.200012	154.280000
525.293701	154.020000
525.387329	154.800000
525.481018	154.700000
525.574646	154.840000
525.668396	154.840000
525.762024	155.280000
525.855713	155.160000
525.949341	154.860000
526.043030	155.100000
526.136658	154.900000
526.230347	154.460000
526.323975	153.920000
526.417664	154.140000
526.511292	153.860000
526.604980	154.120000
526.698608	154.220000
526.792297	154.540000
526.885925	155.140000
526.979614	155.500000
527.073303	155.260000
527.166931	155.200000
527.260620	155.380000
527.354309	155.180000
527.447998	154.560000
527.541626	154.480000
527.635315	154.960000
527.728943	155.060000
527.822632	155.180000
527.916260	155.380000
528.009949	155.960000
528.103577	155.520000
528.197266	154.980000
528.290894	154.860000
528.384583	154.680000
528.478210	154.320000
528.571899	154.460000
528.665527	154.900000
528.759216	155.000000
528.852844	155.640000
528.946533	155.680000
529.040161	155.700000
529.133850	155.360000
529.227478	155.400000
529.321167	155.400000
529.414856	155.920000
529.508484	156.380000
529.602173	156.040000
529.695801	155.760000
529.789490	155.320000
529.883057	154.680000
529.976746	154.740000
530.070374	155.440000
530.164062	155.600000
530.257690	156.080000
530.351379	156.440000
530.445007	155.840000
530.538696	155.020000
530.632324	155.280000
530.726013	154.920000
530.819641	154.560000
530.913330	154.880000
531.006958	155.340000
531.100647	155.160000
531.194275	155.000000
531.287964	155.140000
531.381592	154.940000
531.475220	155.120000
531.568848	154.940000
531.662537	155.100000
531.756226	155.380000
531.849854	155.240000
531.943542	155.080000
532.037170	154.560000
532.130859	154.860000
532.224487	154.560000
532.318176	154.240000
532.411804	154.620000
532.505432	155.200000
532.599060	154.840000
532.692749	154.740000
532.786377	155.260000
532.880066	154.700000
532.973694	154.100000
533.067383	153.800000
533.161011	153.920000
533.254639	153.980000
533.348267	153.960000
533.441956	154.600000
533.535583	154.520000
533.629272	154.740000
533.722900	154.260000
533.816589	154.300000
533.910156	154.380000
534.003845	154.440000
534.097534	154.520000
534.191162	155.340000
534.284851	155.700000
534.378479	155.040000
534.472107	155.400000
534.565735	154.980000
534.659424	154.800000
534.753052	154.640000
534.846741	154.360000
534.940369	154.820000
535.033997	154.860000
535.127625	154.480000
535.221313	155.140000
535.314941	155.400000
535.408630	154.340000
535.502197	154.780000
535.595886	154.860000
535.689514	154.220000
535.783203	154.920000
535.876831	155.960000
535.970459	155.680000
536.064087	155.140000
536.157776	155.140000
536.251404	154.960000
536.345093	154.280000
536.438721	154.040000
536.532349	154.520000
536.626038	154.320000
536.719666	154.480000
536.813293	154.340000
536.906921	154.560000
537.000610	154.620000
537.094238	154.780000
537.187866	154.660000
537.281494	154.720000
537.375183	155.260000
537.468811	154.980000
537.562439	155.040000
537.656067	154.800000
537.749756	155.100000
537.843384	155.380000
537.937012	155.740000
538.030640	155.480000
538.124329	155.540000
538.217896	155.780000
538.311584	155.240000
538.405212	154.920000
538.498901	155.580000
538.592468	156.440000
538.686157	155.820000
538.779785	154.860000
538.873413	154.940000
538.967102	154.140000
539.060730	153.060000
539.154358	153.480000
539.247986	154.080000
539.341675	154.280000
539.435242	154.360000
539.528931	154.660000
539.622559	154.100000
539.716187	154.740000
539.809814	154.580000
539.903503	154.440000
539.997070	154.360000
540.090759	154.360000
540.184387	153.700000
540.278015	154.100000
540.371643	154.520000
540.465332	154.680000
540.558899	154.940000
540.652588	155.240000
540.746216	154.840000
540.839844	155.200000
540.933472	154.740000
541.027100	154.540000
541.120728	154.580000
541.214417	154.600000
541.308044	154.720000
541.401672	155.060000
541.495300	155.120000
541.588928	155.080000
541.682617	154.660000
541.776184	154.240000
541.869873	154.340000
541.963440	154.420000
542.057129	153.880000
542.150757	154.040000
542.244385	153.500000
542.338013	152.980000
542.431641	152.980000
542.525269	153.360000
542.618958	153.880000
542.712524	154.480000
542.806213	154.680000
542.899780	154.680000
542.993469	154.480000
543.087036	154.240000
543.180725	153.400000
543.274292	153.780000
543.367981	154.020000
543.461548	154.440000
543.555237	154.540000
543.648926	155.640000
543.742493	156.080000
543.836182	156.040000
543.929749	155.600000
544.023437	155.400000
544.117004	155.200000
544.210693	154.800000
544.304260	154.880000
544.397949	154.620000
544.491516	154.900000
544.585205	154.800000
544.678772	154.160000
544.772461	154.440000
544.866028	154.740000
544.959717	154.720000
545.053284	154.640000
545.146973	155.140000
545.240540	154.820000
545.334229	155.320000
545.427795	155.640000
545.521423	155.540000
545.615051	155.580000
545.708679	156.220000
545.802307	155.840000
545.895935	155.460000
545.989624	156.160000
546.083191	155.960000
546.176880	155.520000
546.270447	155.100000
546.364136	156.040000
546.457703	155.480000
546.551331	155.620000
546.644958	155.680000
546.738586	156.400000
546.832214	155.400000
546.925842	155.240000
547.019409	155.420000
547.113098	154.940000
547.206665	154.520000
547.300354	154.500000
547.393921	154.920000
547.487549	155.200000
547.581177	155.080000
547.674805	154.960000
547.768433	154.620000
547.862061	154.500000
547.955627	153.220000
548.049316	154.160000
548.142883	154.640000
548.236572	155.220000
548.330139	155.380000
548.423767	155.860000
548.517456	155.360000
548.611023	155.460000
548.704651	154.820000
548.798279	154.820000
548.891907	155.620000
548.985474	155.340000
549.079163	155.480000
549.172729	155.620000
549.266357	154.720000
549.359985	154.200000
549.453613	153.940000
549.547180	153.640000
549.640869	154.040000
549.734436	154.500000
549.828064	154.780000
549.921631	155.100000
550.015320	154.640000
550.108887	154.920000
550.202515	154.820000
550.296143	154.660000
550.389771	154.840000
550.483337	155.060000
550.576965	154.620000
550.670593	155.380000
550.764221	155.360000
550.857849	154.980000
550.951477	154.600000
551.045105	154.480000
551.138672	154.180000
551.232300	153.700000
551.325928	154.000000
551.419556	154.540000
551.513123	154.640000
551.606750	154.140000
551.700378	154.680000
551.794006	154.660000
551.887573	154.460000
551.981201	154.820000
552.074768	154.920000
552.168457	154.580000
552.262024	155.340000
552.355652	155.460000
552.449219	155.740000
552.542847	155.780000
552.636475	155.720000
552.730103	154.560000
552.823669	154.200000
552.917297	153.380000
553.010864	153.460000
553.104553	153.900000
553.198181	153.720000
553.291748	154.280000
553.385376	155.020000
553.478943	154.860000
553.572571	154.560000
553.666199	155.300000
553.759827	154.980000
553.853394	153.940000
553.947021	154.100000
554.040588	154.440000
554.134216	154.140000
554.227783	154.920000
554.321411	156.020000
554.415039	155.460000
554.508667	155.160000
554.602234	155.580000
554.695862	154.700000
554.789429	154.380000
554.883057	154.840000
554.976624	155.020000
555.070251	154.660000
555.163818	154.580000
555.257507	154.560000
555.351074	154.660000
555.444702	155.580000
555.538330	155.320000
555.631897	155.500000
555.725525	155.260000
555.819092	154.940000
555.912720	153.480000
556.006287	154.400000
556.099915	154.400000
556.193481	154.580000
556.287109	154.980000
556.380676	155.060000
556.474304	155.000000
556.567871	155.500000
556.661499	155.240000
556.755066	155.160000
556.848694	155.400000
556.942261	154.840000
557.035889	154.560000
557.129517	154.740000
557.223145	155.300000
557.316711	155.280000
557.410339	155.300000
557.503906	155.400000
557.597473	155.780000
557.691040	155.120000
557.784668	155.320000
557.878296	155.400000
557.971863	155.340000
558.065491	155.120000
558.159058	155.160000
558.252686	155.960000
558.346252	156.760000
558.439880	156.000000
558.533447	155.820000
558.627075	155.380000
558.720642	154.260000
558.814270	153.780000
558.907837	154.340000
559.001465	154.060000
559.095032	155.040000
559.188660	155.480000
559.282227	154.760000
559.375854	155.280000
559.469360	155.160000
559.562988	155.420000
559.656555	155.180000
559.750183	155.760000
559.843750	155.560000
559.937378	155.700000
560.030945	155.180000
560.124573	0.000000
560.218140	0.000000
560.311707	0.000000
560.405334	0.000000
560.498901	0.000000
560.592529	0.000000
560.686096	0.000000
560.779724	0.000000
560.873291	0.000000
560.966858	0.000000
561.060425	0.000000
561.154053	0.000000
561.247620	0.000000
561.341248	0.000000
561.434814	0.000000
561.528381	0.000000
561.621948	0.000000
561.715576	0.000000
561.809143	0.000000
561.902771	0.000000
561.996277	0.000000
562.089905	0.000000
562.183472	0.000000
562.277100	0.000000
