Model Number: SPM-002-B   
Serial Number: 70087108
Firmware Version: 004.15.4
Exposure Time: 100000.000000us
Data Taken on: 15-01-2021 17:48:48.439
Wavelength	Amplitude
221.570786	0.000000
221.663406	0.000000
221.756027	0.000000
221.848648	0.000000
221.941269	0.000000
222.033905	0.000000
222.126526	0.000000
222.219162	0.000000
222.311798	0.000000
222.404419	0.000000
222.497055	0.000000
222.589676	0.000000
222.682312	0.000000
222.774933	0.000000
222.867569	0.000000
222.960205	0.000000
223.052841	0.000000
223.145462	0.000000
223.238098	0.000000
223.330734	0.000000
223.423386	0.000000
223.516022	0.000000
223.608658	0.000000
223.701309	0.000000
223.793945	0.000000
223.886581	0.000000
223.979218	0.000000
224.071869	0.000000
224.164505	0.000000
224.257156	0.000000
224.349792	0.000000
224.442444	0.000000
224.535095	0.000000
224.627747	0.000000
224.720398	0.000000
224.813034	0.000000
224.905685	0.000000
224.998337	154.260000
225.090988	153.440000
225.183640	153.480000
225.276291	153.360000
225.368942	153.760000
225.461594	154.100000
225.554245	154.740000
225.646912	154.240000
225.739578	154.800000
225.832230	155.040000
225.924896	154.260000
226.017548	154.520000
226.110199	155.320000
226.202866	154.560000
226.295532	154.380000
226.388184	154.260000
226.480850	153.500000
226.573517	153.140000
226.666168	153.440000
226.758835	153.560000
226.851501	154.360000
226.944183	154.580000
227.036850	154.160000
227.129517	154.280000
227.222183	154.380000
227.314850	154.060000
227.407516	154.480000
227.500198	155.580000
227.592865	155.120000
227.685532	154.640000
227.778214	154.280000
227.870880	154.600000
227.963562	154.580000
228.056229	155.140000
228.148926	155.440000
228.241592	156.380000
228.334274	155.440000
228.426956	154.940000
228.519638	154.980000
228.612305	154.440000
228.704987	153.900000
228.797668	154.360000
228.890350	153.920000
228.983032	153.480000
229.075714	154.300000
229.168396	154.240000
229.261108	153.540000
229.353790	154.060000
229.446472	154.500000
229.539169	154.140000
229.631851	153.840000
229.724533	154.220000
229.817230	154.000000
229.909912	154.960000
230.002609	155.040000
230.095306	155.220000
230.187988	155.160000
230.280685	154.840000
230.373383	153.580000
230.466095	153.160000
230.558792	153.220000
230.651474	153.360000
230.744171	153.540000
230.836868	153.460000
230.929581	154.240000
231.022278	154.300000
231.114975	154.600000
231.207672	154.640000
231.300369	155.260000
231.393082	155.220000
231.485779	154.980000
231.578506	154.780000
231.671204	154.760000
231.763916	154.420000
231.856613	154.120000
231.949326	154.360000
232.042023	154.320000
232.134735	154.380000
232.227448	154.040000
232.320160	154.540000
232.412872	154.660000
232.505585	155.360000
232.598297	155.700000
232.691010	155.780000
232.783722	154.960000
232.876450	155.440000
232.969162	154.760000
233.061874	154.080000
233.154587	154.080000
233.247314	154.520000
233.340027	153.760000
233.432739	154.480000
233.525467	154.440000
233.618179	154.800000
233.710907	154.420000
233.803635	154.800000
233.896347	154.200000
233.989090	155.220000
234.081818	155.000000
234.174545	155.360000
234.267258	155.000000
234.359985	155.260000
234.452713	154.860000
234.545441	154.600000
234.638168	154.040000
234.730896	154.640000
234.823639	154.420000
234.916367	154.600000
235.009094	154.620000
235.101822	154.820000
235.194580	154.280000
235.287308	154.540000
235.380051	154.040000
235.472778	154.540000
235.565521	155.140000
235.658249	155.040000
235.750992	154.880000
235.843719	154.780000
235.936462	154.700000
236.029205	154.060000
236.121948	153.860000
236.214691	154.200000
236.307449	155.140000
236.400192	154.940000
236.492935	154.720000
236.585678	155.140000
236.678421	154.800000
236.771164	154.060000
236.863907	154.500000
236.956665	154.800000
237.049408	156.420000
237.142151	156.080000
237.234909	156.980000
237.327652	156.620000
237.420410	156.460000
237.513153	155.280000
237.605927	155.040000
237.698669	154.220000
237.791428	153.780000
237.884186	154.440000
237.976944	153.740000
238.069702	154.460000
238.162445	154.320000
238.255203	154.620000
238.347961	154.860000
238.440720	154.840000
238.533478	154.320000
238.626266	154.040000
238.719025	154.420000
238.811783	153.880000
238.904541	154.040000
238.997314	154.020000
239.090073	153.760000
239.182831	153.920000
239.275604	154.500000
239.368362	154.060000
239.461136	154.500000
239.553909	155.020000
239.646667	154.600000
239.739441	154.060000
239.832214	154.740000
239.925003	154.520000
240.017761	155.000000
240.110535	155.340000
240.203308	155.160000
240.296082	155.060000
240.388855	155.120000
240.481628	155.100000
240.574417	155.440000
240.667191	155.480000
240.759964	155.020000
240.852737	155.260000
240.945526	154.740000
241.038315	154.060000
241.131088	154.040000
241.223877	154.660000
241.316650	153.860000
241.409439	154.300000
241.502228	154.260000
241.595001	154.920000
241.687790	154.440000
241.780579	154.940000
241.873367	155.040000
241.966141	154.960000
242.058929	154.000000
242.151718	154.500000
242.244507	154.980000
242.337311	154.200000
242.430099	154.840000
242.522903	155.320000
242.615692	154.760000
242.708481	154.720000
242.801270	154.940000
242.894073	154.560000
242.986862	154.440000
243.079651	155.220000
243.172455	154.540000
243.265244	155.160000
243.358063	154.460000
243.450867	154.840000
243.543655	154.600000
243.636459	154.820000
243.729263	154.820000
243.822067	155.240000
243.914856	155.280000
244.007660	155.320000
244.100464	155.440000
244.193268	154.480000
244.286072	154.540000
244.378876	153.960000
244.471680	153.660000
244.564499	154.080000
244.657318	155.260000
244.750122	155.380000
244.842926	154.940000
244.935745	155.420000
245.028549	154.740000
245.121368	154.080000
245.214172	154.120000
245.306992	154.920000
245.399796	154.220000
245.492615	154.320000
245.585434	154.040000
245.678253	153.980000
245.771072	153.780000
245.863892	154.240000
245.956711	154.540000
246.049530	154.540000
246.142349	154.420000
246.235168	154.500000
246.327988	155.000000
246.420807	154.720000
246.513626	154.840000
246.606445	154.600000
246.699280	154.740000
246.792099	154.160000
246.884918	153.660000
246.977753	153.460000
247.070587	153.720000
247.163422	153.420000
247.256241	153.460000
247.349075	154.060000
247.441895	154.540000
247.534729	154.580000
247.627563	154.820000
247.720383	155.480000
247.813217	155.060000
247.906052	154.840000
247.998886	154.960000
248.091736	154.680000
248.184570	153.920000
248.277405	154.300000
248.370239	155.360000
248.463074	156.280000
248.555908	156.520000
248.648743	156.560000
248.741592	156.780000
248.834427	155.500000
248.927261	154.280000
249.020111	154.700000
249.112946	155.240000
249.205795	154.420000
249.298630	154.840000
249.391495	154.720000
249.484344	154.080000
249.577179	153.760000
249.670029	154.360000
249.762878	154.740000
249.855728	155.160000
249.948563	155.400000
250.041412	154.980000
250.134262	154.960000
250.227112	154.680000
250.319962	154.740000
250.412827	154.540000
250.505692	154.080000
250.598541	154.220000
250.691391	153.940000
250.784241	153.840000
250.877106	154.060000
250.969955	154.320000
251.062805	154.780000
251.155670	155.120000
251.248520	154.920000
251.341385	154.960000
251.434235	155.160000
251.527100	154.500000
251.619965	154.340000
251.712814	154.940000
251.805695	154.700000
251.898560	154.720000
251.991425	154.740000
252.084290	154.760000
252.177155	153.820000
252.270020	153.860000
252.362885	153.920000
252.455750	154.140000
252.548615	153.840000
252.641479	154.380000
252.734360	154.300000
252.827240	154.140000
252.920105	154.340000
253.012970	154.320000
253.105850	153.940000
253.198715	153.680000
253.291595	153.940000
253.384460	153.060000
253.477341	152.960000
253.570221	153.380000
253.663086	153.360000
253.755966	153.920000
253.848846	154.420000
253.941727	155.160000
254.034592	154.820000
254.127472	154.440000
254.220367	154.320000
254.313248	154.340000
254.406128	153.640000
254.499008	154.240000
254.591904	155.300000
254.684784	155.480000
254.777664	155.820000
254.870544	155.780000
254.963440	155.300000
255.056335	155.200000
255.149216	154.460000
255.242111	154.340000
255.334991	154.740000
255.427887	154.900000
255.520767	154.920000
255.613663	155.200000
255.706558	154.600000
255.799438	154.260000
255.892334	153.860000
255.985229	153.600000
256.078125	153.300000
256.171021	153.560000
256.263916	154.100000
256.356812	154.680000
256.449707	154.860000
256.542603	154.820000
256.635498	155.360000
256.728394	155.040000
256.821289	154.880000
256.914215	155.000000
257.007080	155.320000
257.100006	155.320000
257.192932	155.640000
257.285828	155.760000
257.378723	155.360000
257.471619	155.140000
257.564545	154.580000
257.657440	154.660000
257.750336	155.100000
257.843262	155.020000
257.936157	156.320000
258.029053	156.700000
258.121979	156.660000
258.214874	155.980000
258.307800	155.940000
258.400696	154.400000
258.493622	154.200000
258.586517	153.120000
258.679443	153.660000
258.772339	153.380000
258.865265	153.660000
258.958160	153.180000
259.051086	154.560000
259.144012	154.140000
259.236938	155.040000
259.329834	155.140000
259.422791	155.180000
259.515717	154.200000
259.608612	154.100000
259.701538	154.020000
259.794464	153.840000
259.887390	154.020000
259.980316	153.940000
260.073212	153.700000
260.166138	152.680000
260.259064	153.020000
260.351990	153.500000
260.444916	153.780000
260.537842	154.400000
260.630768	155.640000
260.723694	155.220000
260.816620	155.060000
260.909546	154.980000
261.002472	154.560000
261.095398	153.780000
261.188354	154.080000
261.281281	153.700000
261.374207	153.800000
261.467133	154.420000
261.560089	154.820000
261.653015	154.440000
261.745972	155.400000
261.838867	155.940000
261.931824	156.160000
262.024780	155.740000
262.117706	156.420000
262.210663	156.060000
262.303589	155.720000
262.396515	155.560000
262.489471	156.420000
262.582397	156.000000
262.675354	155.600000
262.768280	155.560000
262.861237	155.180000
262.954163	154.860000
263.047119	154.980000
263.140045	154.760000
263.233002	154.780000
263.325958	154.840000
263.418884	154.140000
263.511841	153.760000
263.604797	153.840000
263.697723	154.020000
263.790680	153.900000
263.883636	154.560000
263.976593	154.780000
264.069550	154.980000
264.162476	154.680000
264.255463	154.620000
264.348419	154.300000
264.441376	154.500000
264.534332	154.160000
264.627289	154.400000
264.720245	154.920000
264.813202	154.300000
264.906158	154.500000
264.999115	155.240000
265.092072	155.080000
265.185028	155.360000
265.277985	156.040000
265.370941	155.660000
265.463898	155.220000
265.556854	154.780000
265.649811	153.740000
265.742798	153.680000
265.835754	153.800000
265.928711	154.080000
266.021667	154.380000
266.114655	154.880000
266.207611	155.140000
266.300568	154.720000
266.393585	154.380000
266.486511	154.580000
266.579498	153.880000
266.672485	153.780000
266.765442	153.780000
266.858429	154.320000
266.951385	154.040000
267.044342	154.340000
267.137329	154.400000
267.230316	154.940000
267.323273	154.400000
267.416260	155.160000
267.509216	154.580000
267.602203	154.420000
267.695160	154.480000
267.788147	154.320000
267.881134	153.680000
267.974091	154.620000
268.067078	154.480000
268.160065	154.320000
268.253052	154.500000
268.346008	154.500000
268.438995	154.060000
268.531982	154.340000
268.624969	154.020000
268.717987	154.500000
268.810944	154.560000
268.903961	155.060000
268.996948	154.860000
269.089905	155.700000
269.182892	155.520000
269.275879	155.880000
269.368866	155.200000
269.461853	155.320000
269.554871	154.980000
269.647858	154.980000
269.740845	155.180000
269.833832	155.820000
269.926819	155.600000
270.019806	155.580000
270.112793	155.300000
270.205811	155.060000
270.298798	154.500000
270.391785	155.120000
270.484772	154.720000
270.577789	154.660000
270.670776	154.400000
270.763763	154.740000
270.856750	154.420000
270.949768	154.260000
271.042786	154.520000
271.135773	154.620000
271.228790	154.920000
271.321808	154.460000
271.414795	154.260000
271.507782	154.060000
271.600800	153.620000
271.693817	153.440000
271.786804	154.320000
271.879822	154.680000
271.972809	154.580000
272.065826	155.180000
272.158844	154.600000
272.251831	154.740000
272.344849	154.620000
272.437866	154.360000
272.530853	154.240000
272.623871	154.620000
272.716888	153.320000
272.809906	153.720000
272.902893	153.940000
272.995911	153.420000
273.088928	153.340000
273.181946	153.960000
273.274963	153.540000
273.367981	153.640000
273.460999	153.900000
273.554047	154.460000
273.647003	155.200000
273.740051	155.160000
273.833069	155.260000
273.926086	155.460000
274.019135	154.880000
274.112152	154.360000
274.205170	154.920000
274.298187	155.220000
274.391205	154.900000
274.484222	155.000000
274.577240	154.860000
274.670258	154.600000
274.763306	154.280000
274.856323	154.560000
274.949341	154.900000
275.042358	155.080000
275.135406	155.020000
275.228424	154.780000
275.321442	154.840000
275.414490	154.260000
275.507507	154.500000
275.600525	154.780000
275.693573	154.840000
275.786591	154.380000
275.879669	154.780000
275.972656	154.300000
276.065735	154.180000
276.158752	154.780000
276.251801	155.860000
276.344818	156.000000
276.437866	156.180000
276.530884	155.860000
276.623932	154.840000
276.716980	154.680000
276.809998	154.540000
276.903046	154.500000
276.996094	155.380000
277.089111	156.360000
277.182159	156.540000
277.275208	156.320000
277.368256	156.560000
277.461304	156.160000
277.554321	155.260000
277.647369	155.000000
277.740417	154.920000
277.833466	154.400000
277.926514	154.200000
278.019562	155.060000
278.112610	154.140000
278.205688	154.460000
278.298706	154.600000
278.391785	154.240000
278.484833	153.960000
278.577881	154.100000
278.670929	154.440000
278.763977	154.700000
278.857025	155.380000
278.950073	155.200000
279.043121	155.280000
279.136169	154.700000
279.229248	154.160000
279.322296	154.000000
279.415344	153.940000
279.508392	154.000000
279.601440	154.000000
279.694519	154.200000
279.787567	153.960000
279.880615	153.820000
279.973694	153.760000
280.066742	154.020000
280.159790	154.260000
280.252869	153.940000
280.345917	154.280000
280.438995	154.440000
280.532074	154.380000
280.625122	154.560000
280.718201	155.500000
280.811279	155.380000
280.904327	155.120000
280.997406	155.200000
281.090454	155.080000
281.183533	154.200000
281.276581	154.240000
281.369659	154.120000
281.462738	154.160000
281.555786	154.260000
281.648865	154.580000
281.741943	154.360000
281.835022	155.240000
281.928070	154.880000
282.021149	154.700000
282.114227	154.620000
282.207306	154.900000
282.300385	154.900000
282.393433	155.020000
282.486511	155.160000
282.579590	155.440000
282.672668	155.560000
282.765747	154.880000
282.858856	154.560000
282.951904	154.380000
283.045013	154.660000
283.138062	154.720000
283.231171	155.240000
283.324249	155.800000
283.417328	155.980000
283.510406	155.320000
283.603485	155.060000
283.696564	154.880000
283.789642	154.900000
283.882751	154.720000
283.975830	155.280000
284.068909	155.140000
284.161987	155.500000
284.255066	155.120000
284.348175	155.260000
284.441254	155.220000
284.534332	155.820000
284.627441	155.220000
284.720520	154.840000
284.813599	154.640000
284.906708	154.620000
284.999786	153.720000
285.092896	153.640000
285.185974	154.900000
285.279053	154.420000
285.372192	154.260000
285.465240	155.400000
285.558380	155.260000
285.651459	154.660000
285.744568	155.980000
285.837677	155.740000
285.930756	155.200000
286.023865	155.500000
286.116943	155.100000
286.210052	154.600000
286.303162	154.600000
286.396240	154.620000
286.489349	154.100000
286.582458	154.600000
286.675568	154.380000
286.768646	154.300000
286.861755	154.440000
286.954865	155.620000
287.047974	154.900000
287.141083	154.960000
287.234161	155.000000
287.327271	154.880000
287.420380	154.980000
287.513519	155.220000
287.606598	155.260000
287.699738	155.400000
287.792816	155.220000
287.885956	154.300000
287.979034	154.280000
288.072174	154.520000
288.165283	154.600000
288.258392	155.080000
288.351501	154.980000
288.444611	155.360000
288.537720	155.360000
288.630859	155.040000
288.723969	154.820000
288.817078	155.400000
288.910187	155.200000
289.003296	154.400000
289.096436	154.380000
289.189545	154.260000
289.282654	153.600000
289.375763	153.940000
289.468903	154.580000
289.562012	155.060000
289.655121	155.060000
289.748260	155.580000
289.841400	155.740000
289.934509	155.540000
290.027649	155.400000
290.120728	155.260000
290.213898	155.060000
290.306976	154.600000
290.400146	154.820000
290.493256	154.500000
290.586395	154.480000
290.679535	154.660000
290.772644	154.840000
290.865784	154.160000
290.958893	154.240000
291.052032	154.080000
291.145172	154.200000
291.238281	153.720000
291.331421	153.960000
291.424561	154.300000
291.517670	154.300000
291.610809	154.180000
291.703949	154.120000
291.797089	154.520000
291.890228	153.880000
291.983337	153.660000
292.076477	153.700000
292.169617	154.240000
292.262756	153.880000
292.355927	153.780000
292.449036	153.960000
292.542206	153.820000
292.635315	153.620000
292.728485	153.920000
292.821625	154.080000
292.914764	155.340000
293.007904	155.500000
293.101044	155.700000
293.194183	155.460000
293.287323	155.760000
293.380463	154.840000
293.473602	154.440000
293.566742	154.720000
293.659882	155.300000
293.753021	155.460000
293.846191	155.320000
293.939331	155.080000
294.032471	154.600000
294.125610	154.200000
294.218781	154.340000
294.311920	154.640000
294.405060	154.980000
294.498230	154.900000
294.591370	155.020000
294.684540	154.460000
294.777679	153.980000
294.870850	154.340000
294.963959	154.560000
295.057159	154.400000
295.150299	154.640000
295.243469	154.720000
295.336609	154.360000
295.429779	154.360000
295.522919	154.800000
295.616089	154.680000
295.709229	155.120000
295.802399	155.180000
295.895569	154.840000
295.988708	154.400000
296.081879	154.800000
296.175018	154.240000
296.268188	154.460000
296.361359	155.080000
296.454529	155.600000
296.547668	155.300000
296.640839	156.040000
296.734009	155.580000
296.827179	155.520000
296.920319	155.340000
297.013519	155.280000
297.106659	155.020000
297.199860	154.900000
297.292999	154.660000
297.386200	154.180000
297.479309	154.060000
297.572510	153.880000
297.665680	153.860000
297.758850	153.820000
297.852020	153.680000
297.945190	153.560000
298.038361	153.020000
298.131531	154.080000
298.224701	153.920000
298.317871	153.780000
298.411072	153.440000
298.504242	153.640000
298.597412	152.800000
298.690582	152.960000
298.783752	153.240000
298.876923	153.900000
298.970093	154.100000
299.063293	154.620000
299.156464	155.100000
299.249634	155.400000
299.342834	155.560000
299.436005	155.920000
299.529205	155.420000
299.622345	155.140000
299.715576	154.280000
299.808716	153.880000
299.901917	153.860000
299.995117	154.620000
300.088287	154.780000
300.181488	155.260000
300.274658	155.300000
300.367828	155.220000
300.461029	154.980000
300.554199	154.980000
300.647400	154.800000
300.740601	155.140000
300.833771	154.880000
300.926971	154.800000
301.020142	154.160000
301.113342	154.180000
301.206512	154.100000
301.299713	154.200000
301.392914	154.100000
301.486084	154.600000
301.579285	154.720000
301.672516	155.260000
301.765686	155.120000
301.858887	155.060000
301.952057	154.900000
302.045288	154.740000
302.138458	154.300000
302.231659	154.120000
302.324860	154.020000
302.418060	153.680000
302.511261	153.920000
302.604462	154.160000
302.697662	154.180000
302.790863	153.960000
302.884064	153.840000
302.977264	153.880000
303.070465	153.980000
303.163666	154.920000
303.256866	155.480000
303.350067	155.700000
303.443268	155.720000
303.536469	155.740000
303.629669	155.020000
303.722870	154.760000
303.816071	154.400000
303.909271	154.220000
304.002472	153.240000
304.095673	153.080000
304.188934	152.700000
304.282104	153.860000
304.375336	153.980000
304.468506	154.340000
304.561768	154.320000
304.654968	154.860000
304.748169	154.020000
304.841370	153.640000
304.934601	153.860000
305.027802	153.960000
305.121002	153.380000
305.214233	153.540000
305.307434	153.840000
305.400665	154.680000
305.493866	154.540000
305.587097	155.120000
305.680298	155.080000
305.773499	155.580000
305.866730	154.680000
305.959930	155.360000
306.053162	155.540000
306.146393	155.740000
306.239594	154.840000
306.332825	154.860000
306.426025	154.620000
306.519287	153.940000
306.612488	154.060000
306.705719	154.120000
306.798920	154.360000
306.892181	153.900000
306.985352	153.700000
307.078613	152.840000
307.171844	153.600000
307.265045	153.080000
307.358276	152.640000
307.451508	153.340000
307.544739	154.120000
307.637970	153.340000
307.731201	153.180000
307.824402	154.300000
307.917633	154.520000
308.010864	154.340000
308.104095	155.060000
308.197327	155.380000
308.290558	155.080000
308.383789	154.500000
308.477020	154.680000
308.570251	153.860000
308.663483	153.640000
308.756714	153.560000
308.849976	153.240000
308.943176	153.580000
309.036438	153.740000
309.129639	153.780000
309.222900	153.800000
309.316101	154.100000
309.409393	153.560000
309.502625	153.320000
309.595856	153.380000
309.689087	153.480000
309.782318	153.600000
309.875580	153.620000
309.968811	154.120000
310.062042	154.080000
310.155273	153.760000
310.248535	154.240000
310.341766	154.080000
310.434998	153.820000
310.528259	153.720000
310.621490	153.960000
310.714722	153.060000
310.807983	153.060000
310.901215	153.080000
310.994476	153.260000
311.087708	152.900000
311.181000	153.300000
311.274200	152.960000
311.367462	153.260000
311.460693	152.940000
311.553986	153.960000
311.647186	153.960000
311.740479	155.100000
311.833710	154.640000
311.926971	154.880000
312.020203	153.980000
312.113464	153.800000
312.206726	152.820000
312.299957	153.440000
312.393219	153.940000
312.486481	154.220000
312.579712	154.260000
312.672974	154.400000
312.766235	154.020000
312.859497	153.700000
312.952759	153.540000
313.045990	154.360000
313.139252	153.920000
313.232513	154.340000
313.325775	154.480000
313.419037	154.300000
313.512299	153.320000
313.605530	154.040000
313.698822	153.800000
313.792053	153.800000
313.885345	153.480000
313.978577	153.860000
314.071869	153.440000
314.165131	153.720000
314.258392	153.900000
314.351654	154.540000
314.444916	154.000000
314.538177	154.580000
314.631439	154.820000
314.724701	154.340000
314.817993	153.640000
314.911255	154.400000
315.004517	153.800000
315.097778	153.360000
315.191040	153.860000
315.284302	154.560000
315.377594	153.940000
315.470856	154.480000
315.564117	153.860000
315.657379	153.400000
315.750671	152.880000
315.843933	153.800000
315.937195	153.260000
316.030518	153.400000
316.123749	153.460000
316.217041	154.660000
316.310303	154.160000
316.403595	154.640000
316.496857	154.920000
316.590149	155.400000
316.683411	154.480000
316.776703	154.340000
316.869965	154.160000
316.963257	154.060000
317.056519	153.000000
317.149811	152.760000
317.243073	152.840000
317.336365	152.900000
317.429626	153.040000
317.522919	153.860000
317.616180	154.320000
317.709473	153.860000
317.802765	153.660000
317.896027	153.820000
317.989319	154.260000
318.082611	154.100000
318.175873	154.100000
318.269165	154.080000
318.362488	153.840000
318.455750	153.180000
318.549042	153.560000
318.642303	154.260000
318.735626	154.140000
318.828888	154.360000
318.922211	154.140000
319.015472	154.320000
319.108765	153.460000
319.202057	153.360000
319.295349	153.700000
319.388641	153.520000
319.481934	153.100000
319.575226	153.380000
319.668518	153.780000
319.761810	153.980000
319.855103	154.280000
319.948395	154.380000
320.041687	154.880000
320.134979	154.800000
320.228271	154.080000
320.321564	153.680000
320.414856	153.560000
320.508148	152.620000
320.601440	152.460000
320.694763	152.520000
320.788025	153.780000
320.881348	153.560000
320.974640	153.840000
321.067963	153.280000
321.161224	153.220000
321.254547	152.220000
321.347839	152.820000
321.441162	152.800000
321.534454	153.520000
321.627747	153.380000
321.721069	154.320000
321.814362	154.260000
321.907654	154.720000
322.000946	154.420000
322.094269	155.020000
322.187561	154.440000
322.280884	154.680000
322.374176	154.720000
322.467468	155.220000
322.560791	154.820000
322.654083	155.180000
322.747406	155.300000
322.840698	155.140000
322.934021	155.500000
323.027344	155.760000
323.120636	155.280000
323.213959	155.000000
323.307251	154.640000
323.400574	153.800000
323.493866	153.420000
323.587219	153.560000
323.680511	153.960000
323.773834	154.100000
323.867157	154.700000
323.960449	154.660000
324.053772	154.640000
324.147095	153.860000
324.240387	154.580000
324.333710	154.340000
324.427032	154.500000
324.520355	154.240000
324.613647	154.160000
324.706970	153.780000
324.800293	153.720000
324.893616	154.280000
324.986938	154.680000
325.080231	154.640000
325.173553	155.000000
325.266876	155.300000
325.360199	154.900000
325.453522	154.320000
325.546875	154.180000
325.640167	154.140000
325.733521	154.180000
325.826813	154.580000
325.920166	154.860000
326.013489	155.020000
326.106812	154.280000
326.200134	153.820000
326.293457	152.940000
326.386780	153.100000
326.480103	152.940000
326.573425	152.980000
326.666748	153.140000
326.760071	153.880000
326.853424	153.760000
326.946747	154.140000
327.040070	155.100000
327.133392	154.700000
327.226715	153.800000
327.320068	153.520000
327.413391	153.680000
327.506714	152.720000
327.600037	152.900000
327.693390	153.400000
327.786713	153.640000
327.880066	153.560000
327.973358	153.980000
328.066742	154.600000
328.160034	154.900000
328.253418	155.340000
328.346710	155.080000
328.440063	154.900000
328.533417	154.400000
328.626740	154.560000
328.720093	154.040000
328.813416	154.440000
328.906769	154.420000
329.000092	154.720000
329.093445	154.600000
329.186768	154.660000
329.280121	154.680000
329.373444	155.040000
329.466797	154.860000
329.560120	154.980000
329.653473	155.040000
329.746796	154.480000
329.840149	154.080000
329.933502	154.140000
330.026825	153.820000
330.120178	153.580000
330.213562	153.640000
330.306854	153.680000
330.400238	153.620000
330.493561	153.260000
330.586945	154.040000
330.680237	154.380000
330.773621	154.320000
330.866974	154.320000
330.960327	154.780000
331.053680	154.340000
331.147003	154.440000
331.240356	154.760000
331.333710	154.740000
331.427063	154.440000
331.520416	154.620000
331.613770	154.140000
331.707123	154.200000
331.800476	154.320000
331.893829	155.200000
331.987152	155.040000
332.080505	155.160000
332.173859	154.840000
332.267212	154.300000
332.360565	153.500000
332.453918	153.200000
332.547333	153.140000
332.640656	153.340000
332.734039	153.760000
332.827362	153.860000
332.920746	154.320000
333.014069	154.960000
333.107452	155.180000
333.200806	155.440000
333.294159	155.540000
333.387543	155.040000
333.480896	154.160000
333.574249	153.660000
333.667603	153.360000
333.760956	153.520000
333.854340	153.700000
333.947693	153.940000
334.041046	154.260000
334.134430	154.340000
334.227783	154.100000
334.321136	154.040000
334.414520	154.020000
334.507874	154.340000
334.601227	154.440000
334.694611	154.400000
334.787964	154.540000
334.881348	155.060000
334.974701	154.500000
335.068085	154.040000
335.161438	154.320000
335.254822	154.260000
335.348175	153.940000
335.441559	153.920000
335.534943	154.740000
335.628296	154.240000
335.721680	154.000000
335.815033	154.120000
335.908417	154.420000
336.001770	153.980000
336.095154	153.980000
336.188538	153.980000
336.281891	153.540000
336.375275	153.040000
336.468658	152.800000
336.562012	153.340000
336.655396	153.660000
336.748779	154.180000
336.842133	154.680000
336.935516	155.080000
337.028900	154.240000
337.122284	153.820000
337.215637	153.780000
337.309021	153.360000
337.402435	153.020000
337.495789	153.240000
337.589203	153.320000
337.682526	153.140000
337.775940	153.720000
337.869324	153.960000
337.962708	153.800000
338.056091	154.560000
338.149475	154.200000
338.242859	154.200000
338.336243	154.260000
338.429626	154.640000
338.523010	154.300000
338.616394	154.360000
338.709778	153.880000
338.803162	153.820000
338.896545	153.920000
338.989929	153.620000
339.083313	153.960000
339.176697	154.100000
339.270081	153.720000
339.363464	154.140000
339.456848	154.420000
339.550232	154.080000
339.643616	153.760000
339.737030	153.880000
339.830383	153.200000
339.923828	153.220000
340.017181	153.280000
340.110596	153.720000
340.203949	153.460000
340.297363	153.200000
340.390778	153.080000
340.484161	153.080000
340.577545	152.960000
340.670959	153.380000
340.764343	153.640000
340.857727	153.720000
340.951111	153.320000
341.044525	153.300000
341.137909	153.040000
341.231293	153.200000
341.324707	152.860000
341.418091	153.960000
341.511505	154.200000
341.604889	154.380000
341.698303	154.340000
341.791687	154.500000
341.885071	153.720000
341.978485	153.160000
342.071899	153.360000
342.165283	153.580000
342.258698	154.000000
342.352081	154.480000
342.445496	155.260000
342.538879	155.180000
342.632324	155.020000
342.725708	154.900000
342.819122	154.480000
342.912506	154.040000
343.005920	153.840000
343.099335	154.820000
343.192719	154.600000
343.286133	154.980000
343.379547	155.060000
343.472931	155.500000
343.566345	154.440000
343.659760	154.640000
343.753143	153.960000
343.846558	153.640000
343.939972	153.280000
344.033386	153.920000
344.126770	153.580000
344.220184	154.140000
344.313599	154.860000
344.407043	155.100000
344.500427	154.180000
344.593872	154.960000
344.687225	154.840000
344.780670	154.040000
344.874054	153.720000
344.967499	154.260000
345.060913	153.900000
345.154327	153.600000
345.247742	153.620000
345.341156	153.440000
345.434570	153.060000
345.527985	153.100000
345.621399	153.360000
345.714813	153.600000
345.808228	154.020000
345.901642	154.160000
345.995056	153.480000
346.088470	153.620000
346.181885	153.680000
346.275299	153.400000
346.368713	153.500000
346.462128	153.620000
346.555573	153.520000
346.648987	153.780000
346.742401	153.920000
346.835815	154.420000
346.929260	154.420000
347.022644	154.180000
347.116119	154.120000
347.209503	154.320000
347.302948	154.640000
347.396362	155.080000
347.489807	155.360000
347.583221	155.580000
347.676636	154.940000
347.770050	153.900000
347.863495	153.480000
347.956909	153.460000
348.050323	152.880000
348.143768	153.280000
348.237183	153.320000
348.330597	153.760000
348.424042	153.960000
348.517456	154.420000
348.610901	154.480000
348.704315	154.440000
348.797760	154.040000
348.891174	153.400000
348.984619	152.700000
349.078033	153.260000
349.171448	154.080000
349.264923	154.040000
349.358337	154.220000
349.451782	154.600000
349.545197	153.660000
349.638641	152.660000
349.732086	152.220000
349.825500	152.880000
349.918945	152.620000
350.012390	153.500000
350.105804	154.340000
350.199249	155.020000
350.292664	154.940000
350.386108	155.140000
350.479553	155.240000
350.572968	154.580000
350.666412	154.300000
350.759857	154.120000
350.853302	154.620000
350.946716	153.780000
351.040161	154.080000
351.133606	154.180000
351.227081	153.920000
351.320465	154.480000
351.413940	154.700000
351.507355	154.860000
351.600830	155.320000
351.694244	155.200000
351.787720	154.460000
351.881104	154.540000
351.974579	154.480000
352.067993	154.820000
352.161469	154.860000
352.254883	154.440000
352.348358	154.320000
352.441803	154.300000
352.535248	153.920000
352.628693	154.460000
352.722137	154.440000
352.815582	154.400000
352.909027	154.340000
353.002472	153.880000
353.095917	153.680000
353.189362	154.120000
353.282806	154.280000
353.376251	154.060000
353.469696	153.780000
353.563141	154.160000
353.656586	153.740000
353.750061	153.500000
353.843475	153.660000
353.936981	154.560000
354.030396	153.760000
354.123871	154.100000
354.217285	154.860000
354.310760	155.220000
354.404175	155.340000
354.497681	155.600000
354.591095	155.360000
354.684570	154.240000
354.777985	153.640000
354.871490	153.000000
354.964935	153.280000
355.058380	153.700000
355.151855	153.840000
355.245300	154.420000
355.338745	154.780000
355.432220	154.520000
355.525665	153.940000
355.619110	154.660000
355.712585	154.440000
355.806030	154.160000
355.899475	153.660000
355.992950	154.040000
356.086426	154.240000
356.179871	154.000000
356.273346	153.960000
356.366791	154.360000
356.460266	154.620000
356.553711	153.780000
356.647186	154.120000
356.740631	154.180000
356.834106	153.780000
356.927551	153.660000
357.021027	153.920000
357.114471	153.480000
357.207947	153.720000
357.301422	154.420000
357.394867	154.400000
357.488342	154.880000
357.581818	155.140000
357.675262	155.140000
357.768738	154.860000
357.862213	154.100000
357.955658	153.900000
358.049133	153.800000
358.142609	153.780000
358.236053	153.720000
358.329529	154.140000
358.423035	154.060000
358.516449	153.740000
358.609955	154.140000
358.703400	154.880000
358.796906	155.220000
358.890350	154.880000
358.983826	155.280000
359.077271	154.260000
359.170776	153.760000
359.264221	153.420000
359.357727	153.840000
359.451172	154.000000
359.544647	154.540000
359.638123	154.620000
359.731598	155.020000
359.825073	155.240000
359.918549	155.280000
360.012024	155.200000
360.105499	154.620000
360.198975	154.540000
360.292450	154.360000
360.385925	154.000000
360.479401	153.680000
360.572876	154.140000
360.666351	154.220000
360.759857	154.200000
360.853302	154.420000
360.946808	154.440000
361.040253	154.440000
361.133759	154.160000
361.227203	154.420000
361.320709	154.400000
361.414154	154.660000
361.507660	154.840000
361.601105	155.400000
361.694641	155.500000
361.788086	155.280000
361.881592	155.820000
361.975067	155.400000
362.068542	155.540000
362.162018	155.220000
362.255524	155.020000
362.348999	154.640000
362.442474	155.020000
362.535950	154.340000
362.629456	154.060000
362.722931	154.100000
362.816406	154.180000
362.909882	154.140000
363.003387	153.980000
363.096863	154.680000
363.190338	154.640000
363.283875	154.620000
363.377319	154.600000
363.470825	155.240000
363.564301	154.360000
363.657806	154.520000
363.751282	153.920000
363.844788	154.780000
363.938232	154.200000
364.031769	155.000000
364.125214	155.180000
364.218750	156.040000
364.312225	154.560000
364.405731	154.840000
364.499207	154.060000
364.592712	153.880000
364.686188	153.780000
364.779694	154.440000
364.873169	154.520000
364.966675	154.720000
365.060150	154.640000
365.153656	154.740000
365.247131	154.540000
365.340637	154.580000
365.434143	155.200000
365.527618	155.360000
365.621155	154.320000
365.714600	154.180000
365.808136	154.100000
365.901611	152.820000
365.995117	152.680000
366.088593	152.880000
366.182129	152.860000
366.275604	152.720000
366.369110	153.220000
366.462585	153.220000
366.556122	154.180000
366.649567	154.560000
366.743103	154.600000
366.836609	154.500000
366.930115	154.840000
367.023590	154.720000
367.117096	154.260000
367.210602	154.160000
367.304108	154.800000
367.397614	155.180000
367.491119	155.260000
367.584595	155.700000
367.678101	155.980000
367.771606	155.420000
367.865112	154.560000
367.958649	153.660000
368.052124	153.340000
368.145660	152.940000
368.239136	153.880000
368.332672	154.240000
368.426147	154.880000
368.519684	154.780000
368.613159	155.400000
368.706696	154.820000
368.800171	154.840000
368.893707	154.500000
368.987183	154.920000
369.080719	154.760000
369.174225	154.600000
369.267731	155.040000
369.361237	155.360000
369.454742	155.160000
369.548248	155.680000
369.641754	155.240000
369.735260	154.600000
369.828766	154.040000
369.922272	154.300000
370.015808	153.360000
370.109314	153.680000
370.202820	153.780000
370.296356	154.560000
370.389832	154.340000
370.483368	154.320000
370.576874	154.040000
370.670410	154.260000
370.763885	153.500000
370.857422	153.600000
370.950928	153.580000
371.044464	154.420000
371.137939	154.420000
371.231476	154.800000
371.324982	155.140000
371.418518	155.520000
371.512024	155.160000
371.605560	154.920000
371.699066	154.940000
371.792572	154.560000
371.886108	154.800000
371.979614	154.700000
372.073120	155.280000
372.166656	155.080000
372.260162	155.280000
372.353668	154.760000
372.447205	154.520000
372.540710	154.140000
372.634277	154.040000
372.727753	153.980000
372.821320	154.120000
372.914795	154.000000
373.008362	153.860000
373.101837	154.300000
373.195404	153.780000
373.288879	153.380000
373.382446	154.200000
373.475922	154.200000
373.569489	154.500000
373.662964	155.080000
373.756531	155.860000
373.850037	155.760000
373.943573	155.540000
374.037109	154.320000
374.130615	154.320000
374.224152	154.000000
374.317657	153.400000
374.411194	154.540000
374.504730	155.060000
374.598236	154.900000
374.691772	154.740000
374.785309	155.100000
374.878815	153.960000
374.972351	154.220000
375.065887	154.060000
375.159454	154.860000
375.252930	154.440000
375.346497	154.780000
375.440002	155.080000
375.533569	154.980000
375.627045	154.000000
375.720612	154.060000
375.814117	154.220000
375.907684	153.900000
376.001160	153.800000
376.094727	153.380000
376.188232	154.440000
376.281799	154.580000
376.375336	154.420000
376.468872	155.220000
376.562408	155.920000
376.655914	155.080000
376.749451	155.100000
376.842987	155.300000
376.936523	154.760000
377.030060	154.600000
377.123596	154.900000
377.217133	154.200000
377.310669	154.180000
377.404205	154.500000
377.497772	154.820000
377.591278	154.460000
377.684845	155.540000
377.778351	155.700000
377.871918	155.260000
377.965424	154.560000
378.058990	154.600000
378.152496	153.660000
378.246063	153.720000
378.339569	154.040000
378.433136	154.340000
378.526642	154.340000
378.620209	154.480000
378.713745	153.880000
378.807312	154.320000
378.900848	154.180000
378.994385	154.460000
379.087921	153.900000
379.181458	154.400000
379.274994	153.400000
379.368530	153.620000
379.462097	153.640000
379.555634	154.420000
379.649170	153.960000
379.742706	154.180000
379.836273	154.240000
379.929810	153.880000
380.023376	153.480000
380.116882	153.500000
380.210449	153.460000
380.303986	153.100000
380.397552	152.660000
380.491058	152.940000
380.584656	152.600000
380.678162	152.960000
380.771729	153.040000
380.865265	154.400000
380.958832	154.420000
381.052368	154.940000
381.145935	155.220000
381.239471	156.020000
381.333008	155.060000
381.426575	155.120000
381.520111	155.360000
381.613647	155.160000
381.707214	154.380000
381.800751	154.120000
381.894318	154.200000
381.987854	153.700000
382.081421	153.640000
382.174988	154.040000
382.268524	153.780000
382.362091	153.720000
382.455627	154.440000
382.549194	154.120000
382.642731	153.440000
382.736298	153.840000
382.829834	153.380000
382.923401	153.620000
383.016937	153.980000
383.110504	154.380000
383.204041	154.620000
383.297607	155.280000
383.391174	154.200000
383.484741	154.720000
383.578278	154.380000
383.671844	153.760000
383.765411	152.720000
383.858948	153.540000
383.952515	153.000000
384.046051	153.500000
384.139618	154.280000
384.233185	155.020000
384.326721	154.920000
384.420288	155.600000
384.513855	155.620000
384.607422	155.700000
384.700989	155.880000
384.794525	155.240000
384.888123	154.660000
384.981659	154.780000
385.075226	154.320000
385.168762	153.960000
385.262360	154.220000
385.355896	153.420000
385.449463	153.180000
385.542999	153.180000
385.636597	154.020000
385.730164	154.260000
385.823730	154.360000
385.917267	154.020000
386.010834	154.340000
386.104401	153.940000
386.197968	154.140000
386.291534	154.660000
386.385101	154.840000
386.478668	155.140000
386.572235	154.980000
386.665802	154.180000
386.759338	153.920000
386.852905	154.100000
386.946472	153.600000
387.040070	153.780000
387.133606	154.400000
387.227203	154.420000
387.320740	154.660000
387.414337	154.400000
387.507874	154.140000
387.601471	153.980000
387.695007	153.800000
387.788605	153.180000
387.882141	153.620000
387.975739	153.780000
388.069275	153.600000
388.162872	153.880000
388.256439	153.800000
388.350037	153.420000
388.443604	153.000000
388.537170	153.040000
388.630737	153.540000
388.724304	153.940000
388.817871	153.980000
388.911438	154.240000
389.005005	154.540000
389.098602	154.780000
389.192169	154.300000
389.285736	154.940000
389.379333	154.840000
389.472870	154.540000
389.566467	154.280000
389.660034	154.680000
389.753632	153.920000
389.847168	154.340000
389.940765	154.640000
390.034332	154.860000
390.127930	154.340000
390.221466	154.640000
390.315063	153.940000
390.408630	153.000000
390.502228	151.960000
390.595795	152.540000
390.689362	152.640000
390.782959	153.240000
390.876526	154.000000
390.970093	154.400000
391.063690	154.760000
391.157257	154.820000
391.250824	154.860000
391.344421	154.500000
391.437988	154.540000
391.531555	154.440000
391.625153	154.400000
391.718750	154.540000
391.812317	154.680000
391.905914	154.480000
391.999481	154.420000
392.093079	154.640000
392.186615	155.080000
392.280243	155.260000
392.373779	155.560000
392.467407	156.140000
392.560944	155.880000
392.654572	155.160000
392.748108	155.220000
392.841736	155.080000
392.935303	154.200000
393.028900	154.120000
393.122467	154.360000
393.216064	153.920000
393.309631	153.420000
393.403229	153.400000
393.496796	153.080000
393.590393	152.200000
393.683990	152.480000
393.777557	153.180000
393.871155	153.520000
393.964722	154.180000
394.058350	154.460000
394.151917	154.660000
394.245514	154.420000
394.339081	154.660000
394.432678	155.000000
394.526245	155.000000
394.619873	154.440000
394.713409	154.580000
394.807037	154.180000
394.900604	153.920000
394.994202	154.020000
395.087769	154.320000
395.181396	154.020000
395.274994	154.840000
395.368561	154.240000
395.462158	154.520000
395.555756	154.160000
395.649353	154.900000
395.742920	154.160000
395.836517	154.820000
395.930115	153.980000
396.023712	154.460000
396.117279	154.380000
396.210876	154.080000
396.304474	153.860000
396.398071	154.580000
396.491669	154.700000
396.585266	154.080000
396.678833	153.740000
396.772461	153.960000
396.866028	153.700000
396.959656	153.500000
397.053223	153.940000
397.146851	153.920000
397.240417	153.540000
397.334015	154.540000
397.427582	154.560000
397.521210	154.260000
397.614807	155.240000
397.708405	155.520000
397.802002	154.920000
397.895599	155.300000
397.989197	155.440000
398.082794	155.100000
398.176392	154.960000
398.269989	155.020000
398.363586	155.260000
398.457184	156.220000
398.550781	156.300000
398.644379	156.320000
398.737976	156.500000
398.831573	156.660000
398.925201	156.500000
399.018768	158.080000
399.112396	160.440000
399.205963	164.500000
399.299591	170.220000
399.393158	178.820000
399.486786	194.480000
399.580353	222.600000
399.673981	274.380000
399.767578	359.780000
399.861206	479.440000
399.954773	617.320000
400.048401	740.580000
400.141998	814.940000
400.235596	820.020000
400.329193	752.780000
400.422791	634.260000
400.516418	499.480000
400.610016	379.200000
400.703613	289.520000
400.797211	231.060000
400.890808	197.640000
400.984436	180.880000
401.078033	172.380000
401.171631	166.380000
401.265259	164.120000
401.358826	161.860000
401.452484	160.480000
401.546051	159.480000
401.639679	158.900000
401.733246	158.400000
401.826904	157.600000
401.920471	156.540000
402.014099	156.080000
402.107697	155.760000
402.201324	155.560000
402.294891	155.860000
402.388550	155.960000
402.482147	156.120000
402.575745	155.940000
402.669373	155.320000
402.762970	154.640000
402.856567	154.620000
402.950195	154.580000
403.043793	154.600000
403.137390	155.460000
403.231018	154.900000
403.324615	155.560000
403.418243	155.020000
403.511841	155.420000
403.605469	154.820000
403.699066	155.900000
403.792694	155.700000
403.886292	155.900000
403.979919	155.700000
404.073517	155.220000
404.167145	155.500000
404.260712	155.300000
404.354370	154.900000
404.447937	154.920000
404.541595	155.300000
404.635162	155.080000
404.728821	155.580000
404.822418	155.260000
404.916046	154.860000
405.009644	154.940000
405.103271	155.020000
405.196899	154.280000
405.290497	154.820000
405.384125	155.240000
405.477722	154.780000
405.571350	154.320000
405.664948	154.620000
405.758575	154.360000
405.852203	154.120000
405.945801	154.560000
406.039429	154.420000
406.133057	154.220000
406.226654	154.120000
406.320312	153.860000
406.413879	154.000000
406.507538	154.320000
406.601135	153.780000
406.694763	154.580000
406.788361	154.500000
406.882019	154.100000
406.975586	154.500000
407.069244	155.720000
407.162872	155.280000
407.256470	155.240000
407.350098	155.280000
407.443726	154.340000
407.537323	153.700000
407.630951	154.020000
407.724579	153.780000
407.818207	154.320000
407.911804	154.700000
408.005432	154.420000
408.099060	154.620000
408.192688	155.280000
408.286285	154.820000
408.379913	154.380000
408.473572	154.640000
408.567169	153.520000
408.660828	153.440000
408.754395	153.200000
408.848053	153.700000
408.941650	153.800000
409.035309	153.940000
409.128906	153.820000
409.222565	154.240000
409.316132	154.360000
409.409790	153.900000
409.503387	154.060000
409.597046	154.140000
409.690674	153.840000
409.784302	154.020000
409.877930	153.980000
409.971558	154.320000
410.065186	154.240000
410.158783	154.480000
410.252411	154.180000
410.346039	154.820000
410.439667	154.640000
410.533295	154.880000
410.626923	155.040000
410.720551	154.720000
410.814209	154.980000
410.907806	155.280000
411.001465	154.540000
411.095062	154.420000
411.188721	154.600000
411.282318	153.860000
411.375977	153.440000
411.469574	154.000000
411.563232	153.640000
411.656830	153.460000
411.750488	153.480000
411.844086	153.560000
411.937744	153.520000
412.031372	153.560000
412.125000	153.800000
412.218628	153.920000
412.312256	154.440000
412.405884	155.100000
412.499512	155.000000
412.593170	155.220000
412.686798	155.300000
412.780426	154.480000
412.874054	154.300000
412.967682	154.740000
413.061310	155.220000
413.154968	155.380000
413.248566	155.840000
413.342224	155.220000
413.435852	154.900000
413.529510	154.340000
413.623108	153.780000
413.716766	153.580000
413.810364	154.200000
413.904022	153.980000
413.997650	153.640000
414.091309	154.460000
414.184906	154.800000
414.278564	154.240000
414.372192	154.740000
414.465851	154.840000
414.559479	154.260000
414.653107	154.820000
414.746735	154.820000
414.840393	154.580000
414.934021	154.820000
415.027649	154.540000
415.121277	154.060000
415.214935	154.560000
415.308563	154.440000
415.402191	153.740000
415.495850	154.160000
415.589478	153.960000
415.683136	153.680000
415.776733	154.340000
415.870422	155.280000
415.964020	154.500000
416.057678	154.380000
416.151306	154.400000
416.244965	153.940000
416.338562	153.620000
416.432251	154.860000
416.525848	155.720000
416.619507	155.880000
416.713165	156.400000
416.806793	156.400000
416.900421	156.220000
416.994080	155.380000
417.087708	155.340000
417.181366	154.780000
417.274994	154.840000
417.368622	154.920000
417.462280	155.760000
417.555908	155.440000
417.649567	155.040000
417.743195	155.020000
417.836853	154.660000
417.930481	154.540000
418.024170	154.920000
418.117767	155.800000
418.211426	156.300000
418.305054	156.500000
418.398712	155.660000
418.492340	155.580000
418.585999	155.840000
418.679626	155.520000
418.773285	155.700000
418.866913	156.420000
418.960571	156.500000
419.054230	156.300000
419.147858	156.260000
419.241516	156.340000
419.335144	155.840000
419.428802	155.600000
419.522461	155.260000
419.616089	155.080000
419.709747	154.840000
419.803375	154.740000
419.897034	154.800000
419.990662	154.620000
420.084320	154.640000
420.177979	154.940000
420.271606	155.600000
420.365295	156.160000
420.458893	156.680000
420.552582	156.880000
420.646210	156.500000
420.739868	155.700000
420.833496	154.900000
420.927155	154.280000
421.020782	154.040000
421.114471	153.500000
421.208069	153.800000
421.301758	154.180000
421.395386	154.220000
421.489044	153.960000
421.582703	154.440000
421.676361	154.960000
421.769989	154.560000
421.863647	155.140000
421.957306	155.580000
422.050934	155.840000
422.144592	155.540000
422.238251	155.480000
422.331909	154.920000
422.425537	154.820000
422.519196	154.600000
422.612854	154.080000
422.706543	153.980000
422.800140	154.400000
422.893829	153.820000
422.987457	153.260000
423.081146	153.760000
423.174744	154.480000
423.268433	153.700000
423.362061	154.140000
423.455750	154.500000
423.549347	154.300000
423.643036	153.580000
423.736664	154.460000
423.830353	154.420000
423.924011	154.980000
424.017639	154.600000
424.111298	154.740000
424.204956	154.300000
424.298615	154.680000
424.392273	154.140000
424.485931	154.520000
424.579559	154.980000
424.673218	155.160000
424.766876	155.000000
424.860535	154.440000
424.954193	154.220000
425.047882	154.420000
425.141510	154.340000
425.235199	154.160000
425.328796	154.660000
425.422485	154.480000
425.516113	153.740000
425.609802	153.820000
425.703430	154.020000
425.797119	153.900000
425.890747	154.540000
425.984436	154.660000
426.078064	154.780000
426.171753	154.880000
426.265411	154.640000
426.359070	154.520000
426.452728	154.620000
426.546356	154.440000
426.640015	154.040000
426.733673	154.600000
426.827332	154.000000
426.920990	154.920000
427.014648	154.560000
427.108307	154.860000
427.201965	155.140000
427.295624	155.620000
427.389282	154.820000
427.482941	155.460000
427.576630	155.440000
427.670258	154.640000
427.763947	154.800000
427.857574	154.640000
427.951263	154.480000
428.044922	154.120000
428.138611	154.220000
428.232239	154.660000
428.325928	155.080000
428.419556	155.420000
428.513245	155.440000
428.606903	155.860000
428.700562	154.980000
428.794220	154.320000
428.887878	153.480000
428.981537	154.100000
429.075195	154.260000
429.168854	154.860000
429.262512	155.240000
429.356201	155.660000
429.449860	155.480000
429.543518	155.300000
429.637177	155.640000
429.730835	155.600000
429.824493	155.540000
429.918182	155.840000
430.011810	155.420000
430.105530	154.500000
430.199158	154.780000
430.292847	154.920000
430.386475	154.680000
430.480164	154.900000
430.573792	154.760000
430.667511	154.620000
430.761139	154.300000
430.854828	154.460000
430.948456	154.800000
431.042145	155.560000
431.135834	155.560000
431.229492	156.160000
431.323151	156.160000
431.416809	155.780000
431.510468	155.680000
431.604156	155.440000
431.697815	155.320000
431.791473	154.500000
431.885132	154.120000
431.978821	154.320000
432.072479	155.000000
432.166138	155.120000
432.259827	155.680000
432.353485	156.620000
432.447174	156.500000
432.540802	155.800000
432.634491	155.900000
432.728149	155.900000
432.821838	156.060000
432.915466	155.480000
433.009186	155.720000
433.102814	155.060000
433.196503	154.840000
433.290131	154.320000
433.383850	155.020000
433.477509	155.060000
433.571167	156.160000
433.664856	156.600000
433.758514	157.120000
433.852173	156.980000
433.945862	156.760000
434.039520	156.200000
434.133179	155.580000
434.226868	154.980000
434.320526	154.580000
434.414185	155.260000
434.507874	154.880000
434.601562	155.460000
434.695221	155.620000
434.788910	156.000000
434.882538	155.760000
434.976257	155.500000
435.069885	155.320000
435.163574	155.420000
435.257233	154.820000
435.350922	154.600000
435.444580	154.540000
435.538269	154.300000
435.631897	154.680000
435.725616	155.360000
435.819275	156.200000
435.912964	156.860000
436.006622	157.340000
436.100311	157.020000
436.193970	156.420000
436.287628	155.700000
436.381317	155.260000
436.474976	154.720000
436.568665	154.260000
436.662323	154.320000
436.756012	154.140000
436.849670	154.300000
436.943390	154.520000
437.037018	154.740000
437.130737	154.900000
437.224365	154.400000
437.318085	154.120000
437.411713	154.260000
437.505432	154.920000
437.599060	155.500000
437.692780	156.500000
437.786407	156.720000
437.880127	156.620000
437.973755	155.900000
438.067474	155.120000
438.161133	154.940000
438.254822	155.340000
438.348480	155.120000
438.442169	155.580000
438.535828	156.040000
438.629517	155.560000
438.723175	154.880000
438.816864	155.580000
438.910553	154.980000
439.004211	154.720000
439.097900	154.880000
439.191559	155.060000
439.285248	153.920000
439.378906	154.380000
439.472626	154.500000
439.566284	154.180000
439.659973	154.560000
439.753632	155.100000
439.847321	155.740000
439.940979	155.600000
440.034698	155.780000
440.128326	155.160000
440.222046	154.780000
440.315674	153.420000
440.409393	153.520000
440.503082	153.440000
440.596741	153.560000
440.690430	154.000000
440.784088	154.200000
440.877777	153.720000
440.971466	153.860000
441.065125	153.840000
441.158813	153.380000
441.252502	153.600000
441.346161	153.760000
441.439850	154.020000
441.533539	154.340000
441.627197	154.660000
441.720886	154.360000
441.814606	154.840000
441.908234	155.220000
442.001953	155.060000
442.095612	155.040000
442.189301	155.660000
442.282959	155.400000
442.376678	154.220000
442.470306	154.940000
442.564026	154.760000
442.657684	154.600000
442.751404	154.720000
442.845032	156.020000
442.938751	155.080000
443.032440	155.420000
443.126099	155.280000
443.219788	155.880000
443.313477	155.180000
443.407166	155.660000
443.500824	155.540000
443.594513	155.740000
443.688202	155.100000
443.781891	154.860000
443.875549	154.260000
443.969238	154.520000
444.062927	154.480000
444.156647	154.400000
444.250275	154.840000
444.343994	155.220000
444.437653	155.180000
444.531372	155.140000
444.625031	154.940000
444.718719	154.780000
444.812378	154.580000
444.906097	154.320000
444.999756	153.660000
445.093445	153.820000
445.187103	153.680000
445.280823	154.180000
445.374512	153.800000
445.468201	153.980000
445.561859	153.780000
445.655548	153.720000
445.749237	152.920000
445.842926	153.400000
445.936615	153.840000
446.030304	153.800000
446.123962	153.960000
446.217651	154.100000
446.311340	154.100000
446.405029	153.760000
446.498749	153.840000
446.592407	153.620000
446.686096	154.140000
446.779755	154.200000
446.873474	154.420000
446.967133	154.660000
447.060852	154.480000
447.154510	154.100000
447.248230	153.780000
447.341858	153.580000
447.435577	153.000000
447.529236	152.980000
447.622955	153.160000
447.716644	153.200000
447.810333	153.740000
447.904022	154.340000
447.997711	154.520000
448.091400	154.800000
448.185059	154.820000
448.278748	154.720000
448.372437	154.400000
448.466125	154.540000
448.559814	154.280000
448.653503	154.800000
448.747192	155.080000
448.840912	155.680000
448.934570	155.600000
449.028290	155.940000
449.121948	155.280000
449.215637	154.500000
449.309296	154.000000
449.403015	154.280000
449.496674	153.940000
449.590393	154.260000
449.684052	154.420000
449.777771	155.200000
449.871429	154.200000
449.965149	153.960000
450.058838	154.460000
450.152527	155.200000
450.246216	154.380000
450.339905	155.280000
450.433594	155.520000
450.527283	155.800000
450.620972	154.960000
450.714661	155.160000
450.808350	155.120000
450.902039	155.320000
450.995728	154.640000
451.089417	154.460000
451.183105	154.540000
451.276794	155.000000
451.370514	154.400000
451.464172	153.560000
451.557892	153.760000
451.651550	153.920000
451.745270	153.240000
451.838928	152.600000
451.932648	153.380000
452.026306	153.660000
452.120026	153.100000
452.213684	153.380000
452.307404	154.080000
452.401062	154.180000
452.494781	154.540000
452.588470	155.080000
452.682159	154.580000
452.775848	154.660000
452.869537	154.220000
452.963226	153.500000
453.056915	153.080000
453.150604	153.400000
453.244293	153.740000
453.337982	154.480000
453.431671	154.860000
453.525360	155.500000
453.619049	155.700000
453.712769	155.620000
453.806427	154.960000
453.900146	154.340000
453.993805	153.860000
454.087555	154.100000
454.181213	154.000000
454.274933	154.020000
454.368591	154.740000
454.462311	154.700000
454.555969	154.100000
454.649689	155.240000
454.743347	155.100000
454.837067	155.500000
454.930756	156.200000
455.024445	156.340000
455.118134	155.520000
455.211853	155.720000
455.305542	155.240000
455.399231	154.900000
455.492920	155.080000
455.586609	154.740000
455.680298	155.120000
455.773987	154.600000
455.867676	154.500000
455.961365	154.660000
456.055084	154.740000
456.148773	154.360000
456.242493	154.760000
456.336151	154.540000
456.429871	154.540000
456.523529	155.040000
456.617249	154.620000
456.710907	155.120000
456.804626	155.120000
456.898315	154.440000
456.992035	153.860000
457.085693	153.820000
457.179413	152.660000
457.273102	153.720000
457.366791	154.200000
457.460480	154.480000
457.554199	155.540000
457.647888	156.060000
457.741577	154.980000
457.835266	154.880000
457.928955	154.940000
458.022644	154.980000
458.116364	155.340000
458.210052	155.260000
458.303741	155.360000
458.397461	154.740000
458.491119	153.940000
458.584839	153.760000
458.678528	153.640000
458.772247	153.200000
458.865906	153.580000
458.959625	154.540000
459.053284	154.380000
459.147003	154.380000
459.240692	155.280000
459.334412	155.380000
459.428070	154.440000
459.521790	154.440000
459.615479	154.520000
459.709198	154.660000
459.802887	153.980000
459.896576	154.080000
459.990265	154.260000
460.083954	154.480000
460.177673	153.600000
460.271362	154.040000
460.365051	153.780000
460.458740	153.400000
460.552429	152.880000
460.646149	153.300000
460.739838	152.960000
460.833527	153.300000
460.927246	153.240000
461.020905	153.460000
461.114655	153.180000
461.208313	153.700000
461.302032	153.220000
461.395691	153.560000
461.489441	153.600000
461.583099	153.460000
461.676819	153.240000
461.770477	153.920000
461.864197	153.500000
461.957916	153.560000
462.051605	153.160000
462.145294	154.180000
462.238983	153.840000
462.332703	154.540000
462.426392	154.960000
462.520081	155.120000
462.613770	154.100000
462.707489	154.340000
462.801178	153.780000
462.894867	153.200000
462.988556	153.280000
463.082275	153.660000
463.175964	153.480000
463.269684	154.000000
463.363342	154.340000
463.457092	154.120000
463.550751	154.540000
463.644470	154.740000
463.738129	154.480000
463.831879	154.680000
463.925537	155.680000
464.019257	155.200000
464.112946	154.960000
464.206665	154.920000
464.300323	154.380000
464.394043	153.880000
464.487762	153.940000
464.581451	154.260000
464.675140	154.000000
464.768829	154.600000
464.862549	154.620000
464.956238	154.840000
465.049927	154.780000
465.143646	155.160000
465.237335	154.840000
465.331024	155.120000
465.424713	154.700000
465.518433	154.640000
465.612152	154.280000
465.705811	154.360000
465.799561	154.320000
465.893219	154.520000
465.986938	154.260000
466.080597	154.240000
466.174347	154.580000
466.268005	154.540000
466.361725	154.340000
466.455414	154.480000
466.549133	154.520000
466.642792	154.400000
466.736542	154.060000
466.830231	154.040000
466.923920	154.200000
467.017609	154.240000
467.111328	153.740000
467.205017	154.040000
467.298706	154.220000
467.392426	154.480000
467.486115	154.840000
467.579803	154.500000
467.673523	154.660000
467.767212	154.940000
467.860901	154.640000
467.954651	154.780000
468.048309	155.520000
468.142029	155.140000
468.235718	154.940000
468.329437	154.600000
468.423096	154.220000
468.516846	153.800000
468.610504	153.600000
468.704224	153.040000
468.797913	153.080000
468.891632	153.440000
468.985291	153.580000
469.079010	153.740000
469.172729	153.520000
469.266418	154.380000
469.360107	154.480000
469.453827	154.440000
469.547516	154.660000
469.641205	155.420000
469.734924	155.440000
469.828613	155.720000
469.922302	156.060000
470.016022	155.980000
470.109711	155.660000
470.203430	154.660000
470.297150	153.440000
470.390808	153.420000
470.484558	153.260000
470.578217	153.920000
470.671936	154.620000
470.765625	155.540000
470.859344	155.500000
470.953003	156.080000
471.046753	155.620000
471.140411	155.020000
471.234131	155.200000
471.327820	155.840000
471.421539	155.580000
471.515228	155.380000
471.608948	155.620000
471.702637	155.020000
471.796326	154.440000
471.890045	154.700000
471.983734	155.100000
472.077423	154.920000
472.171143	155.200000
472.264832	154.700000
472.358521	154.380000
472.452240	153.840000
472.545929	154.440000
472.639648	154.380000
472.733337	155.100000
472.827057	154.980000
472.920746	155.420000
473.014465	155.320000
473.108124	155.480000
473.201874	155.300000
473.295532	155.120000
473.389252	155.240000
473.482941	155.280000
473.576660	154.900000
473.670319	154.580000
473.764069	155.040000
473.857727	154.940000
473.951477	155.180000
474.045166	155.640000
474.138855	155.840000
474.232574	155.600000
474.326263	155.520000
474.419952	155.480000
474.513672	155.360000
474.607361	154.880000
474.701050	155.080000
474.794769	155.280000
474.888458	155.200000
474.982178	155.140000
475.075867	155.640000
475.169586	155.620000
475.263275	155.220000
475.356995	155.020000
475.450653	154.740000
475.544403	154.460000
475.638062	154.900000
475.731812	154.520000
475.825470	154.100000
475.919189	154.200000
476.012878	154.520000
476.106598	153.960000
476.200256	154.640000
476.294006	154.860000
476.387695	154.840000
476.481384	154.500000
476.575104	154.280000
476.668793	153.800000
476.762512	153.440000
476.856201	153.960000
476.949890	153.660000
477.043610	153.400000
477.137299	153.560000
477.230988	153.920000
477.324707	153.500000
477.418396	154.180000
477.512146	154.480000
477.605804	154.380000
477.699524	154.440000
477.793213	154.360000
477.886932	154.120000
477.980591	153.840000
478.074341	153.720000
478.167999	153.000000
478.261749	153.140000
478.355408	153.120000
478.449127	153.780000
478.542816	154.840000
478.636536	156.060000
478.730225	155.960000
478.823944	156.080000
478.917633	155.900000
479.011322	155.640000
479.105042	155.240000
479.198730	155.420000
479.292450	155.180000
479.386139	155.160000
479.479828	154.800000
479.573547	155.000000
479.667267	155.000000
479.760925	155.240000
479.854675	155.700000
479.948334	155.760000
480.042084	154.920000
480.135742	154.800000
480.229462	154.020000
480.323151	153.540000
480.416870	152.920000
480.510529	153.580000
480.604279	153.120000
480.697937	154.000000
480.791656	153.320000
480.885345	153.440000
480.979065	153.260000
481.072754	153.860000
481.166473	153.880000
481.260132	154.500000
481.353882	154.580000
481.447540	154.580000
481.541260	154.600000
481.635010	154.060000
481.728668	154.080000
481.822388	154.040000
481.916077	154.000000
482.009796	153.840000
482.103485	154.160000
482.197205	154.180000
482.290863	154.440000
482.384613	154.240000
482.478271	153.800000
482.571991	153.940000
482.665680	154.080000
482.759399	154.340000
482.853058	154.960000
482.946808	155.200000
483.040466	154.780000
483.134216	153.980000
483.227875	153.720000
483.321594	153.640000
483.415283	153.660000
483.509003	153.860000
483.602661	154.080000
483.696411	154.360000
483.790070	154.240000
483.883789	154.220000
483.977478	154.500000
484.071198	154.840000
484.164917	154.400000
484.258606	153.920000
484.352325	154.380000
484.445984	154.100000
484.539734	154.020000
484.633392	153.540000
484.727142	154.060000
484.820801	153.920000
484.914520	154.140000
485.008209	154.520000
485.101929	155.200000
485.195587	155.040000
485.289337	154.640000
485.382996	154.280000
485.476715	153.980000
485.570404	154.420000
485.664124	154.180000
485.757782	154.480000
485.851532	154.340000
485.945190	153.960000
486.038910	153.620000
486.132599	154.060000
486.226318	153.680000
486.319977	153.600000
486.413727	154.520000
486.507446	154.360000
486.601105	154.080000
486.694855	154.340000
486.788513	154.640000
486.882233	154.420000
486.975922	154.620000
487.069641	154.400000
487.163300	154.260000
487.257050	155.340000
487.350708	154.760000
487.444427	154.260000
487.538116	154.280000
487.631836	154.220000
487.725494	153.340000
487.819214	153.480000
487.912903	153.840000
488.006622	154.340000
488.100281	154.760000
488.194031	154.720000
488.287689	155.240000
488.381409	155.680000
488.475098	155.120000
488.568817	154.900000
488.662476	154.940000
488.756226	154.180000
488.849945	152.920000
488.943604	153.340000
489.037354	153.520000
489.131012	153.340000
489.224731	153.280000
489.318390	153.840000
489.412140	153.540000
489.505798	153.580000
489.599518	153.180000
489.693207	153.720000
489.786926	153.760000
489.880585	153.820000
489.974335	153.840000
490.067993	155.460000
490.161713	155.700000
490.255371	156.440000
490.349121	156.600000
490.442780	156.460000
490.536499	155.140000
490.630188	154.940000
490.723907	153.940000
490.817566	154.280000
490.911285	154.260000
491.004974	154.200000
491.098694	153.780000
491.192413	154.780000
491.286102	154.140000
491.379822	154.420000
491.473480	154.720000
491.567200	154.860000
491.660889	154.080000
491.754608	154.360000
491.848267	153.920000
491.941986	153.980000
492.035675	154.160000
492.129395	154.620000
492.223053	154.480000
492.316772	154.720000
492.410461	154.480000
492.504181	154.500000
492.597839	153.960000
492.691559	154.000000
492.785248	153.860000
492.878967	154.140000
492.972626	153.960000
493.066345	154.360000
493.160034	153.820000
493.253754	153.660000
493.347412	153.140000
493.441132	153.200000
493.534882	153.620000
493.628540	154.380000
493.722260	154.700000
493.815918	155.200000
493.909668	155.540000
494.003326	155.380000
494.097046	155.080000
494.190704	154.800000
494.284454	154.580000
494.378113	154.600000
494.471832	154.400000
494.565491	154.100000
494.659210	154.280000
494.752899	154.280000
494.846619	153.880000
494.940277	153.880000
495.033997	154.220000
495.127686	153.740000
495.221405	153.580000
495.315063	153.860000
495.408783	154.060000
495.502441	154.100000
495.596191	154.600000
495.689850	154.720000
495.783569	154.820000
495.877228	154.760000
495.970947	154.520000
496.064697	154.260000
496.158356	155.300000
496.252075	154.660000
496.345734	154.120000
496.439453	155.220000
496.533142	155.260000
496.626862	154.800000
496.720520	155.380000
496.814240	155.600000
496.907898	154.620000
497.001617	154.880000
497.095306	154.020000
497.189026	153.820000
497.282684	154.040000
497.376404	154.780000
497.470062	154.480000
497.563782	154.480000
497.657471	154.300000
497.751190	154.040000
497.844849	153.580000
497.938568	153.980000
498.032227	154.320000
498.125946	154.660000
498.219635	154.180000
498.313354	154.420000
498.407074	154.140000
498.500732	154.140000
498.594452	154.180000
498.688110	154.280000
498.781830	153.680000
498.875519	153.340000
498.969238	153.340000
499.062897	153.200000
499.156616	154.220000
499.250275	154.340000
499.343994	154.380000
499.437653	154.620000
499.531372	155.100000
499.625061	155.200000
499.718781	155.540000
499.812439	156.120000
499.906158	155.840000
499.999817	155.080000
500.093536	154.360000
500.187195	154.420000
500.280914	154.440000
500.374573	154.900000
500.468323	154.660000
500.561981	154.980000
500.655701	154.420000
500.749420	154.140000
500.843079	153.980000
500.936798	154.200000
501.030457	154.360000
501.124176	154.840000
501.217834	154.720000
501.311554	154.560000
501.405212	154.540000
501.498962	153.700000
501.592621	153.500000
501.686340	153.900000
501.779999	154.180000
501.873718	154.280000
501.967377	154.900000
502.061096	155.260000
502.154755	154.780000
502.248474	154.560000
502.342133	154.940000
502.435852	154.660000
502.529510	155.080000
502.623230	155.860000
502.716888	155.400000
502.810608	155.380000
502.904266	156.160000
502.997986	155.360000
503.091705	154.680000
503.185364	154.880000
503.279083	154.860000
503.372772	154.320000
503.466492	153.980000
503.560150	154.260000
503.653870	154.680000
503.747528	154.360000
503.841248	154.280000
503.934906	154.820000
504.028625	154.140000
504.122284	154.360000
504.216003	155.040000
504.309662	154.460000
504.403381	154.540000
504.497040	155.100000
504.590759	154.440000
504.684418	154.340000
504.778137	155.000000
504.871796	155.020000
504.965515	154.640000
505.059174	154.900000
505.152893	154.180000
505.246521	153.920000
505.340240	153.460000
505.433899	153.800000
505.527618	154.260000
505.621338	154.980000
505.714996	154.780000
505.808716	154.640000
505.902374	155.280000
505.996094	154.980000
506.089752	154.380000
506.183472	154.640000
506.277130	155.160000
506.370850	154.680000
506.464508	154.460000
506.558228	154.500000
506.651886	154.340000
506.745605	154.420000
506.839264	154.140000
506.932983	154.400000
507.026611	154.620000
507.120331	154.720000
507.213989	153.920000
507.307709	154.320000
507.401367	154.440000
507.495087	155.340000
507.588745	155.100000
507.682465	156.340000
507.776123	155.680000
507.869843	155.320000
507.963531	154.720000
508.057190	155.300000
508.150909	154.120000
508.244568	154.800000
508.338287	154.780000
508.431946	154.500000
508.525665	154.360000
508.619324	154.680000
508.713013	154.640000
508.806671	155.020000
508.900391	155.820000
508.994049	155.900000
509.087769	155.660000
509.181427	155.600000
509.275146	155.080000
509.368774	154.220000
509.462494	154.040000
509.556152	154.360000
509.649872	154.580000
509.743530	154.720000
509.837250	154.740000
509.930878	154.820000
510.024597	154.520000
510.118256	153.900000
510.211975	154.100000
510.305695	153.900000
510.399353	154.120000
510.493042	155.000000
510.586700	155.320000
510.680420	155.600000
510.774078	155.800000
510.867798	155.740000
510.961426	154.940000
511.055145	154.880000
511.148804	154.420000
511.242523	154.900000
511.336151	154.980000
511.429871	155.580000
511.523529	155.740000
511.617249	155.500000
511.710876	154.940000
511.804596	154.460000
511.898254	154.320000
511.991974	154.480000
512.085632	154.440000
512.179321	154.800000
512.272949	155.260000
512.366699	155.160000
512.460327	154.860000
512.554077	156.200000
512.647766	156.100000
512.741394	155.860000
512.835144	156.480000
512.928772	156.120000
513.022461	155.840000
513.116150	155.480000
513.209839	156.280000
513.303467	155.520000
513.397217	155.380000
513.490845	154.760000
513.584595	154.760000
513.678223	153.640000
513.771912	153.220000
513.865601	153.800000
513.959290	153.460000
514.052917	153.480000
514.146667	154.500000
514.240295	154.760000
514.333984	154.840000
514.427673	154.940000
514.521362	155.440000
514.614990	154.540000
514.708740	154.980000
514.802368	155.180000
514.896057	155.420000
514.989746	156.060000
515.083435	156.000000
515.177124	156.020000
515.270752	155.660000
515.364502	155.420000
515.458130	154.860000
515.551819	155.040000
515.645508	154.680000
515.739197	154.580000
515.832825	154.700000
515.926575	153.940000
516.020203	154.300000
516.113892	155.140000
516.207520	155.160000
516.301270	155.300000
516.394897	155.740000
516.488586	156.020000
516.582275	155.660000
516.675964	154.840000
516.769592	154.540000
516.863281	155.200000
516.956970	155.260000
517.050659	155.020000
517.144287	155.600000
517.238037	155.800000
517.331665	154.980000
517.425354	154.320000
517.519043	154.100000
517.612732	154.640000
517.706421	154.260000
517.800049	154.140000
517.893738	154.020000
517.987427	154.180000
518.081116	153.580000
518.174744	153.380000
518.268433	153.620000
518.362122	154.200000
518.455811	154.160000
518.549438	154.920000
518.643127	155.760000
518.736816	155.600000
518.830505	154.740000
518.924133	154.420000
519.017822	154.240000
519.111511	154.100000
519.205200	154.740000
519.298828	154.700000
519.392517	154.660000
519.486206	154.840000
519.579895	154.900000
519.673523	154.340000
519.767212	154.460000
519.860901	154.940000
519.954590	154.260000
520.048279	153.860000
520.141907	153.880000
520.235596	155.300000
520.329224	155.320000
520.422974	155.480000
520.516602	155.460000
520.610291	155.020000
520.703918	154.160000
520.797607	153.680000
520.891296	154.000000
520.984985	154.300000
521.078613	155.240000
521.172302	154.880000
521.265930	155.820000
521.359680	156.260000
521.453308	155.980000
521.546997	155.280000
521.640625	155.360000
521.734314	154.880000
521.827942	154.160000
521.921692	154.340000
522.015320	154.520000
522.109009	154.620000
522.202698	154.600000
522.296326	154.760000
522.390015	154.980000
522.483704	155.100000
522.577393	154.860000
522.671021	154.540000
522.764709	153.960000
522.858337	154.300000
522.952026	154.280000
523.045654	154.820000
523.139404	155.460000
523.233032	155.960000
523.326721	155.360000
523.420349	155.460000
523.514038	154.960000
523.607666	155.140000
523.701355	154.760000
523.795044	154.820000
523.888733	154.860000
523.982361	155.140000
524.076050	154.580000
524.169678	155.320000
524.263367	155.040000
524.356995	154.640000
524.450684	154.660000
524.544373	154.460000
524.638062	154.000000
524.731750	154.220000
524.825378	154.220000
524.919067	153.640000
525.012695	154.080000
525.106384	153.740000
525.200012	153.760000
525.293701	153.900000
525.387329	154.440000
525.481018	154.100000
525.574646	154.700000
525.668396	154.520000
525.762024	154.760000
525.855713	154.960000
525.949341	154.600000
526.043030	154.460000
526.136658	154.740000
526.230347	154.340000
526.323975	153.720000
526.417664	153.580000
526.511292	153.860000
526.604980	153.520000
526.698608	153.240000
526.792297	153.540000
526.885925	153.920000
526.979614	153.840000
527.073303	153.840000
527.166931	154.400000
527.260620	154.400000
527.354309	154.780000
527.447998	154.600000
527.541626	154.540000
527.635315	154.540000
527.728943	154.980000
527.822632	155.040000
527.916260	155.020000
528.009949	155.460000
528.103577	155.020000
528.197266	154.280000
528.290894	154.200000
528.384583	154.140000
528.478210	153.780000
528.571899	154.180000
528.665527	154.820000
528.759216	154.820000
528.852844	155.260000
528.946533	155.240000
529.040161	155.160000
529.133850	154.820000
529.227478	154.980000
529.321167	155.160000
529.414856	155.860000
529.508484	156.540000
529.602173	156.200000
529.695801	155.860000
529.789490	155.120000
529.883057	154.560000
529.976746	154.380000
530.070374	155.040000
530.164062	155.340000
530.257690	155.860000
530.351379	155.920000
530.445007	155.340000
530.538696	154.640000
530.632324	154.880000
530.726013	154.720000
530.819641	154.780000
530.913330	155.140000
531.006958	155.440000
531.100647	155.280000
531.194275	155.180000
531.287964	155.320000
531.381592	155.160000
531.475220	155.420000
531.568848	155.540000
531.662537	155.380000
531.756226	155.480000
531.849854	155.340000
531.943542	154.980000
532.037170	154.360000
532.130859	154.760000
532.224487	154.340000
532.318176	154.140000
532.411804	154.920000
532.505432	155.420000
532.599060	155.020000
532.692749	154.920000
532.786377	155.520000
532.880066	154.580000
532.973694	153.600000
533.067383	153.680000
533.161011	153.900000
533.254639	153.720000
533.348267	153.880000
533.441956	154.640000
533.535583	154.360000
533.629272	154.560000
533.722900	153.720000
533.816589	153.760000
533.910156	154.060000
534.003845	153.940000
534.097534	153.860000
534.191162	155.080000
534.284851	155.040000
534.378479	154.520000
534.472107	154.880000
534.565735	154.800000
534.659424	154.420000
534.753052	154.600000
534.846741	154.300000
534.940369	154.940000
535.033997	154.840000
535.127625	154.600000
535.221313	155.240000
535.314941	155.380000
535.408630	154.320000
535.502197	154.860000
535.595886	154.660000
535.689514	153.920000
535.783203	154.720000
535.876831	155.480000
535.970459	155.080000
536.064087	155.000000
536.157776	155.040000
536.251404	154.740000
536.345093	154.120000
536.438721	154.220000
536.532349	154.760000
536.626038	154.760000
536.719666	155.020000
536.813293	155.220000
536.906921	154.700000
537.000610	154.980000
537.094238	155.060000
537.187866	154.860000
537.281494	154.500000
537.375183	155.040000
537.468811	154.640000
537.562439	154.640000
537.656067	154.320000
537.749756	154.820000
537.843384	155.300000
537.937012	155.420000
538.030640	155.080000
538.124329	155.180000
538.217896	155.320000
538.311584	154.960000
538.405212	154.620000
538.498901	155.040000
538.592468	155.680000
538.686157	155.320000
538.779785	154.600000
538.873413	154.760000
538.967102	154.220000
539.060730	153.340000
539.154358	153.840000
539.247986	154.380000
539.341675	154.580000
539.435242	154.900000
539.528931	155.040000
539.622559	154.620000
539.716187	154.940000
539.809814	154.780000
539.903503	154.640000
539.997070	154.660000
540.090759	154.540000
540.184387	153.920000
540.278015	154.280000
540.371643	154.640000
540.465332	154.700000
540.558899	154.540000
540.652588	154.860000
540.746216	154.580000
540.839844	154.840000
540.933472	154.780000
541.027100	155.140000
541.120728	155.040000
541.214417	155.200000
541.308044	155.140000
541.401672	155.080000
541.495300	154.640000
541.588928	154.580000
541.682617	154.360000
541.776184	154.100000
541.869873	154.380000
541.963440	154.940000
542.057129	154.860000
542.150757	154.640000
542.244385	154.040000
542.338013	153.480000
542.431641	152.920000
542.525269	153.060000
542.618958	153.740000
542.712524	154.280000
542.806213	154.260000
542.899780	154.720000
542.993469	154.580000
543.087036	154.080000
543.180725	153.460000
543.274292	154.000000
543.367981	154.080000
543.461548	154.760000
543.555237	154.520000
543.648926	155.500000
543.742493	156.180000
543.836182	156.180000
543.929749	155.580000
544.023437	156.040000
544.117004	155.780000
544.210693	155.300000
544.304260	155.280000
544.397949	155.080000
544.491516	155.340000
544.585205	155.440000
544.678772	154.680000
544.772461	155.120000
544.866028	155.240000
544.959717	154.860000
545.053284	154.400000
545.146973	155.220000
545.240540	155.040000
545.334229	155.360000
545.427795	155.600000
545.521423	155.980000
545.615051	155.360000
545.708679	155.580000
545.802307	155.520000
545.895935	155.720000
545.989624	156.400000
546.083191	156.540000
546.176880	156.400000
546.270447	155.840000
546.364136	155.860000
546.457703	155.200000
546.551331	155.280000
546.644958	155.100000
546.738586	155.940000
546.832214	155.580000
546.925842	155.440000
547.019409	155.700000
547.113098	155.560000
547.206665	154.940000
547.300354	154.660000
547.393921	154.820000
547.487549	155.080000
547.581177	154.520000
547.674805	154.620000
547.768433	154.080000
547.862061	154.240000
547.955627	153.340000
548.049316	154.380000
548.142883	154.800000
548.236572	155.680000
548.330139	155.680000
548.423767	155.940000
548.517456	155.160000
548.611023	155.160000
548.704651	154.380000
548.798279	154.160000
548.891907	154.600000
548.985474	154.660000
549.079163	154.780000
549.172729	155.080000
549.266357	154.440000
549.359985	154.320000
549.453613	153.900000
549.547180	153.520000
549.640869	153.940000
549.734436	154.020000
549.828064	154.340000
549.921631	154.880000
550.015320	154.720000
550.108887	155.260000
550.202515	155.580000
550.296143	154.980000
550.389771	154.940000
550.483337	155.020000
550.576965	154.240000
550.670593	154.420000
550.764221	154.600000
550.857849	154.300000
550.951477	154.000000
551.045105	153.960000
551.138672	154.220000
551.232300	153.780000
551.325928	154.560000
551.419556	154.880000
551.513123	155.020000
551.606750	154.580000
551.700378	154.900000
551.794006	154.400000
551.887573	154.340000
551.981201	154.660000
552.074768	154.700000
552.168457	154.540000
552.262024	155.420000
552.355652	155.320000
552.449219	155.680000
552.542847	155.720000
552.636475	155.600000
552.730103	154.380000
552.823669	154.500000
552.917297	153.660000
553.010864	153.480000
553.104553	153.880000
553.198181	154.100000
553.291748	154.440000
553.385376	154.600000
553.478943	154.420000
553.572571	154.140000
553.666199	154.420000
553.759827	153.860000
553.853394	153.480000
553.947021	153.840000
554.040588	153.880000
554.134216	153.820000
554.227783	154.760000
554.321411	155.840000
554.415039	155.420000
554.508667	155.280000
554.602234	155.580000
554.695862	154.900000
554.789429	154.140000
554.883057	154.540000
554.976624	154.580000
555.070251	154.000000
555.163818	153.740000
555.257507	154.000000
555.351074	153.840000
555.444702	154.960000
555.538330	154.920000
555.631897	155.260000
555.725525	154.960000
555.819092	155.080000
555.912720	153.820000
556.006287	154.360000
556.099915	154.200000
556.193481	154.540000
556.287109	154.760000
556.380676	154.640000
556.474304	154.640000
556.567871	155.040000
556.661499	154.420000
556.755066	154.320000
556.848694	154.700000
556.942261	154.400000
557.035889	154.220000
557.129517	154.680000
557.223145	155.000000
557.316711	155.260000
557.410339	155.300000
557.503906	154.900000
557.597473	154.860000
557.691040	154.580000
557.784668	154.380000
557.878296	154.220000
557.971863	154.900000
558.065491	154.960000
558.159058	154.320000
558.252686	155.180000
558.346252	156.060000
558.439880	154.980000
558.533447	154.820000
558.627075	155.080000
558.720642	154.200000
558.814270	153.820000
558.907837	154.360000
559.001465	154.080000
559.095032	155.020000
559.188660	155.360000
559.282227	154.800000
559.375854	155.360000
559.469360	155.540000
559.562988	155.460000
559.656555	155.320000
559.750183	155.540000
559.843750	155.480000
559.937378	155.440000
560.030945	154.860000
560.124573	0.000000
560.218140	0.000000
560.311707	0.000000
560.405334	0.000000
560.498901	0.000000
560.592529	0.000000
560.686096	0.000000
560.779724	0.000000
560.873291	0.000000
560.966858	0.000000
561.060425	0.000000
561.154053	0.000000
561.247620	0.000000
561.341248	0.000000
561.434814	0.000000
561.528381	0.000000
561.621948	0.000000
561.715576	0.000000
561.809143	0.000000
561.902771	0.000000
561.996277	0.000000
562.089905	0.000000
562.183472	0.000000
562.277100	0.000000
