Model Number: SPM-002-B   
Serial Number: 70087108
Firmware Version: 004.15.4
Exposure Time: 100000.000000us
Data Taken on: 15-01-2021 17:50:27.197
Wavelength	Amplitude
221.570786	0.000000
221.663406	0.000000
221.756027	0.000000
221.848648	0.000000
221.941269	0.000000
222.033905	0.000000
222.126526	0.000000
222.219162	0.000000
222.311798	0.000000
222.404419	0.000000
222.497055	0.000000
222.589676	0.000000
222.682312	0.000000
222.774933	0.000000
222.867569	0.000000
222.960205	0.000000
223.052841	0.000000
223.145462	0.000000
223.238098	0.000000
223.330734	0.000000
223.423386	0.000000
223.516022	0.000000
223.608658	0.000000
223.701309	0.000000
223.793945	0.000000
223.886581	0.000000
223.979218	0.000000
224.071869	0.000000
224.164505	0.000000
224.257156	0.000000
224.349792	0.000000
224.442444	0.000000
224.535095	0.000000
224.627747	0.000000
224.720398	0.000000
224.813034	0.000000
224.905685	0.000000
224.998337	153.520000
225.090988	153.160000
225.183640	153.260000
225.276291	152.820000
225.368942	153.200000
225.461594	153.820000
225.554245	154.220000
225.646912	154.120000
225.739578	155.040000
225.832230	155.560000
225.924896	154.860000
226.017548	154.920000
226.110199	155.520000
226.202866	154.380000
226.295532	154.080000
226.388184	153.920000
226.480850	153.300000
226.573517	152.640000
226.666168	153.140000
226.758835	153.660000
226.851501	154.360000
226.944183	154.660000
227.036850	154.260000
227.129517	154.280000
227.222183	154.260000
227.314850	154.000000
227.407516	154.540000
227.500198	155.680000
227.592865	155.120000
227.685532	154.360000
227.778214	154.220000
227.870880	154.220000
227.963562	154.460000
228.056229	155.120000
228.148926	155.260000
228.241592	156.240000
228.334274	155.720000
228.426956	155.200000
228.519638	155.080000
228.612305	154.460000
228.704987	153.800000
228.797668	154.100000
228.890350	153.580000
228.983032	153.200000
229.075714	154.220000
229.168396	154.140000
229.261108	153.660000
229.353790	154.040000
229.446472	154.320000
229.539169	154.040000
229.631851	153.660000
229.724533	153.940000
229.817230	154.020000
229.909912	155.220000
230.002609	155.120000
230.095306	155.520000
230.187988	155.460000
230.280685	155.280000
230.373383	153.960000
230.466095	154.040000
230.558792	153.960000
230.651474	154.060000
230.744171	153.900000
230.836868	153.740000
230.929581	153.700000
231.022278	153.880000
231.114975	153.720000
231.207672	153.680000
231.300369	154.380000
231.393082	154.560000
231.485779	154.600000
231.578506	154.580000
231.671204	154.860000
231.763916	154.640000
231.856613	154.700000
231.949326	154.520000
232.042023	154.400000
232.134735	154.400000
232.227448	154.160000
232.320160	154.420000
232.412872	154.500000
232.505585	155.480000
232.598297	155.740000
232.691010	155.840000
232.783722	155.100000
232.876450	155.660000
232.969162	155.020000
233.061874	154.380000
233.154587	153.940000
233.247314	154.200000
233.340027	153.500000
233.432739	153.940000
233.525467	154.080000
233.618179	154.340000
233.710907	154.180000
233.803635	154.300000
233.896347	153.740000
233.989090	154.700000
234.081818	154.860000
234.174545	154.960000
234.267258	154.760000
234.359985	155.080000
234.452713	154.560000
234.545441	154.640000
234.638168	154.800000
234.730896	155.460000
234.823639	155.060000
234.916367	155.160000
235.009094	154.940000
235.101822	155.100000
235.194580	154.640000
235.287308	155.020000
235.380051	154.960000
235.472778	155.200000
235.565521	155.400000
235.658249	155.100000
235.750992	154.860000
235.843719	154.420000
235.936462	154.700000
236.029205	153.840000
236.121948	153.660000
236.214691	154.480000
236.307449	155.400000
236.400192	154.980000
236.492935	155.120000
236.585678	155.440000
236.678421	154.860000
236.771164	154.200000
236.863907	154.500000
236.956665	154.860000
237.049408	156.800000
237.142151	156.560000
237.234909	157.300000
237.327652	157.220000
237.420410	156.720000
237.513153	155.340000
237.605927	155.360000
237.698669	154.560000
237.791428	153.820000
237.884186	154.540000
237.976944	154.220000
238.069702	154.260000
238.162445	154.020000
238.255203	154.680000
238.347961	154.800000
238.440720	154.820000
238.533478	155.040000
238.626266	154.880000
238.719025	154.980000
238.811783	154.600000
238.904541	154.300000
238.997314	153.900000
239.090073	153.880000
239.182831	154.200000
239.275604	154.800000
239.368362	154.760000
239.461136	154.720000
239.553909	154.980000
239.646667	154.220000
239.739441	153.700000
239.832214	154.080000
239.925003	154.460000
240.017761	155.140000
240.110535	155.920000
240.203308	155.640000
240.296082	155.580000
240.388855	155.420000
240.481628	154.880000
240.574417	154.820000
240.667191	154.900000
240.759964	154.300000
240.852737	154.340000
240.945526	154.080000
241.038315	153.660000
241.131088	153.800000
241.223877	154.540000
241.316650	153.940000
241.409439	154.620000
241.502228	154.520000
241.595001	155.240000
241.687790	154.820000
241.780579	155.060000
241.873367	154.860000
241.966141	154.800000
242.058929	153.840000
242.151718	154.260000
242.244507	154.800000
242.337311	154.180000
242.430099	154.960000
242.522903	155.240000
242.615692	154.620000
242.708481	154.580000
242.801270	155.380000
242.894073	155.060000
242.986862	155.200000
243.079651	155.960000
243.172455	155.720000
243.265244	155.360000
243.358063	154.740000
243.450867	154.740000
243.543655	154.420000
243.636459	154.340000
243.729263	154.940000
243.822067	155.300000
243.914856	155.540000
244.007660	155.500000
244.100464	155.440000
244.193268	154.460000
244.286072	154.260000
244.378876	153.720000
244.471680	153.680000
244.564499	154.300000
244.657318	155.120000
244.750122	155.580000
244.842926	155.020000
244.935745	155.300000
245.028549	154.460000
245.121368	154.040000
245.214172	153.860000
245.306992	154.740000
245.399796	154.140000
245.492615	154.660000
245.585434	154.340000
245.678253	154.480000
245.771072	154.060000
245.863892	154.640000
245.956711	154.860000
246.049530	154.820000
246.142349	154.420000
246.235168	154.640000
246.327988	155.000000
246.420807	154.440000
246.513626	154.800000
246.606445	154.780000
246.699280	154.720000
246.792099	154.020000
246.884918	153.820000
246.977753	153.440000
247.070587	153.360000
247.163422	153.400000
247.256241	153.740000
247.349075	154.200000
247.441895	154.580000
247.534729	154.780000
247.627563	154.580000
247.720383	154.760000
247.813217	154.780000
247.906052	154.420000
247.998886	154.480000
248.091736	154.440000
248.184570	154.120000
248.277405	153.740000
248.370239	154.800000
248.463074	155.440000
248.555908	156.040000
248.648743	156.120000
248.741592	156.720000
248.834427	155.900000
248.927261	154.820000
249.020111	154.980000
249.112946	155.400000
249.205795	154.500000
249.298630	154.640000
249.391495	154.720000
249.484344	153.880000
249.577179	153.780000
249.670029	154.420000
249.762878	154.740000
249.855728	155.080000
249.948563	155.400000
250.041412	154.720000
250.134262	154.760000
250.227112	154.900000
250.319962	154.740000
250.412827	154.620000
250.505692	154.260000
250.598541	154.260000
250.691391	153.580000
250.784241	153.720000
250.877106	154.160000
250.969955	154.100000
251.062805	154.340000
251.155670	155.060000
251.248520	154.820000
251.341385	154.740000
251.434235	155.080000
251.527100	154.820000
251.619965	154.320000
251.712814	155.100000
251.805695	154.980000
251.898560	155.140000
251.991425	155.400000
252.084290	155.480000
252.177155	154.640000
252.270020	154.560000
252.362885	154.660000
252.455750	154.300000
252.548615	154.020000
252.641479	154.340000
252.734360	154.100000
252.827240	153.600000
252.920105	153.680000
253.012970	153.820000
253.105850	153.340000
253.198715	153.280000
253.291595	153.560000
253.384460	153.340000
253.477341	153.260000
253.570221	153.820000
253.663086	153.660000
253.755966	154.460000
253.848846	154.620000
253.941727	154.900000
254.034592	154.580000
254.127472	154.040000
254.220367	153.740000
254.313248	153.920000
254.406128	153.480000
254.499008	153.780000
254.591904	154.980000
254.684784	155.560000
254.777664	155.320000
254.870544	155.120000
254.963440	155.040000
255.056335	154.920000
255.149216	154.000000
255.242111	154.640000
255.334991	155.140000
255.427887	155.000000
255.520767	154.980000
255.613663	155.140000
255.706558	154.400000
255.799438	154.000000
255.892334	154.000000
255.985229	153.740000
256.078125	153.760000
256.171021	153.900000
256.263916	154.780000
256.356812	154.760000
256.449707	154.760000
256.542603	154.480000
256.635498	154.700000
256.728394	154.060000
256.821289	153.940000
256.914215	154.400000
257.007080	154.740000
257.100006	154.680000
257.192932	155.500000
257.285828	155.660000
257.378723	155.360000
257.471619	155.280000
257.564545	154.780000
257.657440	154.280000
257.750336	154.640000
257.843262	154.420000
257.936157	155.520000
258.029053	156.220000
258.121979	156.140000
258.214874	155.980000
258.307800	155.920000
258.400696	154.220000
258.493622	153.780000
258.586517	153.480000
258.679443	153.660000
258.772339	153.340000
258.865265	153.560000
258.958160	153.220000
259.051086	154.080000
259.144012	153.700000
259.236938	154.600000
259.329834	154.820000
259.422791	155.020000
259.515717	154.140000
259.608612	154.040000
259.701538	153.900000
259.794464	153.720000
259.887390	153.760000
259.980316	153.600000
260.073212	153.360000
260.166138	152.540000
260.259064	153.080000
260.351990	153.540000
260.444916	153.580000
260.537842	154.460000
260.630768	155.400000
260.723694	155.220000
260.816620	155.400000
260.909546	155.620000
261.002472	154.840000
261.095398	154.220000
261.188354	154.140000
261.281281	153.320000
261.374207	153.340000
261.467133	154.180000
261.560089	154.460000
261.653015	154.220000
261.745972	155.000000
261.838867	155.520000
261.931824	155.740000
262.024780	155.260000
262.117706	155.600000
262.210663	155.780000
262.303589	155.420000
262.396515	154.980000
262.489471	155.940000
262.582397	155.860000
262.675354	155.080000
262.768280	154.900000
262.861237	154.800000
262.954163	154.680000
263.047119	154.680000
263.140045	154.720000
263.233002	155.000000
263.325958	154.620000
263.418884	153.800000
263.511841	153.360000
263.604797	153.460000
263.697723	153.180000
263.790680	153.400000
263.883636	154.300000
263.976593	154.660000
264.069550	154.620000
264.162476	154.400000
264.255463	154.400000
264.348419	153.720000
264.441376	154.060000
264.534332	153.400000
264.627289	153.780000
264.720245	154.140000
264.813202	153.700000
264.906158	153.300000
264.999115	154.020000
265.092072	153.800000
265.185028	154.160000
265.277985	154.800000
265.370941	155.100000
265.463898	155.020000
265.556854	154.700000
265.649811	153.540000
265.742798	153.440000
265.835754	153.300000
265.928711	153.660000
266.021667	154.060000
266.114655	154.980000
266.207611	155.420000
266.300568	154.960000
266.393585	154.360000
266.486511	154.620000
266.579498	153.360000
266.672485	153.240000
266.765442	153.340000
266.858429	154.320000
266.951385	153.940000
267.044342	154.520000
267.137329	154.260000
267.230316	154.560000
267.323273	153.780000
267.416260	154.540000
267.509216	154.440000
267.602203	154.620000
267.695160	155.000000
267.788147	155.180000
267.881134	154.180000
267.974091	154.640000
268.067078	154.240000
268.160065	153.740000
268.253052	153.460000
268.346008	153.640000
268.438995	153.400000
268.531982	153.480000
268.624969	153.480000
268.717987	153.840000
268.810944	153.840000
268.903961	154.060000
268.996948	153.820000
269.089905	154.360000
269.182892	154.440000
269.275879	154.840000
269.368866	154.160000
269.461853	154.640000
269.554871	154.020000
269.647858	154.040000
269.740845	154.240000
269.833832	154.840000
269.926819	154.380000
270.019806	154.780000
270.112793	154.020000
270.205811	154.000000
270.298798	153.740000
270.391785	154.520000
270.484772	153.960000
270.577789	154.500000
270.670776	154.120000
270.763763	154.100000
270.856750	153.840000
270.949768	153.740000
271.042786	153.720000
271.135773	153.640000
271.228790	154.080000
271.321808	153.540000
271.414795	153.480000
271.507782	153.080000
271.600800	152.760000
271.693817	152.540000
271.786804	153.120000
271.879822	153.800000
271.972809	153.980000
272.065826	154.600000
272.158844	154.220000
272.251831	154.680000
272.344849	154.400000
272.437866	154.140000
272.530853	154.000000
272.623871	154.300000
272.716888	152.720000
272.809906	152.920000
272.902893	153.280000
272.995911	152.880000
273.088928	152.780000
273.181946	153.480000
273.274963	152.940000
273.367981	152.680000
273.460999	153.140000
273.554047	153.740000
273.647003	154.380000
273.740051	154.720000
273.833069	155.220000
273.926086	155.160000
274.019135	154.600000
274.112152	154.400000
274.205170	154.440000
274.298187	154.220000
274.391205	153.780000
274.484222	153.980000
274.577240	153.880000
274.670258	153.740000
274.763306	153.860000
274.856323	154.300000
274.949341	154.060000
275.042358	154.540000
275.135406	154.640000
275.228424	154.900000
275.321442	154.820000
275.414490	154.900000
275.507507	154.820000
275.600525	155.340000
275.693573	154.820000
275.786591	154.420000
275.879669	154.620000
275.972656	153.980000
276.065735	153.520000
276.158752	153.980000
276.251801	155.060000
276.344818	155.060000
276.437866	155.380000
276.530884	154.840000
276.623932	154.340000
276.716980	154.280000
276.809998	154.280000
276.903046	154.140000
276.996094	155.400000
277.089111	155.760000
277.182159	155.820000
277.275208	155.620000
277.368256	155.860000
277.461304	155.220000
277.554321	154.660000
277.647369	154.420000
277.740417	154.560000
277.833466	154.080000
277.926514	153.900000
278.019562	155.000000
278.112610	154.380000
278.205688	154.460000
278.298706	155.040000
278.391785	154.900000
278.484833	154.100000
278.577881	154.280000
278.670929	154.500000
278.763977	154.460000
278.857025	154.840000
278.950073	154.800000
279.043121	154.500000
279.136169	154.160000
279.229248	153.660000
279.322296	153.800000
279.415344	153.700000
279.508392	153.740000
279.601440	153.800000
279.694519	153.800000
279.787567	153.480000
279.880615	153.320000
279.973694	153.400000
280.066742	153.340000
280.159790	153.400000
280.252869	153.040000
280.345917	153.500000
280.438995	153.520000
280.532074	153.580000
280.625122	154.140000
280.718201	155.340000
280.811279	155.320000
280.904327	155.360000
280.997406	155.520000
281.090454	155.580000
281.183533	154.560000
281.276581	154.380000
281.369659	153.940000
281.462738	153.760000
281.555786	153.700000
281.648865	154.000000
281.741943	154.020000
281.835022	154.940000
281.928070	154.680000
282.021149	154.200000
282.114227	153.980000
282.207306	153.880000
282.300385	153.920000
282.393433	154.340000
282.486511	154.580000
282.579590	155.460000
282.672668	155.900000
282.765747	155.760000
282.858856	155.440000
282.951904	155.640000
283.045013	155.400000
283.138062	155.700000
283.231171	155.660000
283.324249	155.960000
283.417328	155.980000
283.510406	155.420000
283.603485	154.960000
283.696564	155.020000
283.789642	155.180000
283.882751	154.700000
283.975830	155.400000
284.068909	155.100000
284.161987	155.300000
284.255066	154.620000
284.348175	154.920000
284.441254	154.420000
284.534332	154.880000
284.627441	154.440000
284.720520	154.160000
284.813599	154.320000
284.906708	154.460000
284.999786	154.020000
285.092896	153.700000
285.185974	155.000000
285.279053	154.400000
285.372192	154.560000
285.465240	155.220000
285.558380	155.180000
285.651459	154.500000
285.744568	155.500000
285.837677	155.000000
285.930756	154.820000
286.023865	154.820000
286.116943	154.480000
286.210052	154.080000
286.303162	154.160000
286.396240	154.240000
286.489349	154.220000
286.582458	154.700000
286.675568	154.320000
286.768646	154.300000
286.861755	154.580000
286.954865	155.560000
287.047974	155.320000
287.141083	155.260000
287.234161	155.120000
287.327271	154.420000
287.420380	154.320000
287.513519	154.020000
287.606598	154.320000
287.699738	154.600000
287.792816	154.800000
287.885956	154.540000
287.979034	154.800000
288.072174	154.820000
288.165283	154.780000
288.258392	154.760000
288.351501	154.060000
288.444611	154.320000
288.537720	154.440000
288.630859	154.060000
288.723969	154.220000
288.817078	154.960000
288.910187	154.540000
289.003296	153.980000
289.096436	154.060000
289.189545	153.680000
289.282654	152.880000
289.375763	153.380000
289.468903	153.960000
289.562012	154.300000
289.655121	154.280000
289.748260	154.840000
289.841400	154.940000
289.934509	154.560000
290.027649	154.720000
290.120728	155.000000
290.213898	155.060000
290.306976	154.540000
290.400146	154.960000
290.493256	154.320000
290.586395	154.240000
290.679535	154.260000
290.772644	154.340000
290.865784	153.380000
290.958893	153.480000
291.052032	153.360000
291.145172	153.360000
291.238281	153.080000
291.331421	153.280000
291.424561	154.160000
291.517670	153.920000
291.610809	153.640000
291.703949	153.820000
291.797089	154.360000
291.890228	153.740000
291.983337	153.960000
292.076477	154.380000
292.169617	154.580000
292.262756	154.380000
292.355927	154.160000
292.449036	154.020000
292.542206	154.180000
292.635315	154.400000
292.728485	154.780000
292.821625	154.700000
292.914764	155.840000
293.007904	155.580000
293.101044	155.360000
293.194183	155.300000
293.287323	155.520000
293.380463	154.740000
293.473602	154.500000
293.566742	154.740000
293.659882	154.980000
293.753021	155.100000
293.846191	155.240000
293.939331	154.840000
294.032471	154.540000
294.125610	154.120000
294.218781	154.440000
294.311920	154.840000
294.405060	155.360000
294.498230	155.580000
294.591370	155.760000
294.684540	155.160000
294.777679	154.520000
294.870850	154.820000
294.963959	154.620000
295.057159	154.320000
295.150299	154.760000
295.243469	154.460000
295.336609	153.640000
295.429779	153.820000
295.522919	154.280000
295.616089	154.060000
295.709229	154.840000
295.802399	155.440000
295.895569	155.020000
295.988708	154.600000
296.081879	154.740000
296.175018	154.000000
296.268188	153.840000
296.361359	154.440000
296.454529	154.700000
296.547668	154.580000
296.640839	155.200000
296.734009	154.780000
296.827179	154.560000
296.920319	154.540000
297.013519	154.640000
297.106659	154.680000
297.199860	154.940000
297.292999	155.100000
297.386200	154.940000
297.479309	154.540000
297.572510	154.040000
297.665680	153.760000
297.758850	153.500000
297.852020	153.420000
297.945190	153.280000
298.038361	153.140000
298.131531	154.300000
298.224701	154.240000
298.317871	154.000000
298.411072	153.460000
298.504242	153.480000
298.597412	152.820000
298.690582	153.120000
298.783752	153.300000
298.876923	154.260000
298.970093	154.340000
299.063293	154.560000
299.156464	154.760000
299.249634	155.040000
299.342834	155.340000
299.436005	155.500000
299.529205	155.060000
299.622345	154.840000
299.715576	154.140000
299.808716	153.480000
299.901917	153.500000
299.995117	153.780000
300.088287	153.780000
300.181488	153.900000
300.274658	153.700000
300.367828	153.780000
300.461029	153.620000
300.554199	153.900000
300.647400	154.160000
300.740601	154.960000
300.833771	154.640000
300.926971	154.940000
301.020142	154.300000
301.113342	154.120000
301.206512	154.020000
301.299713	154.560000
301.392914	154.380000
301.486084	154.840000
301.579285	155.040000
301.672516	155.440000
301.765686	155.060000
301.858887	155.060000
301.952057	154.840000
302.045288	154.860000
302.138458	154.460000
302.231659	154.440000
302.324860	154.700000
302.418060	154.600000
302.511261	154.300000
302.604462	154.600000
302.697662	154.040000
302.790863	153.440000
302.884064	153.020000
302.977264	153.160000
303.070465	152.880000
303.163666	154.040000
303.256866	154.500000
303.350067	154.680000
303.443268	154.680000
303.536469	154.840000
303.629669	154.300000
303.722870	154.160000
303.816071	154.180000
303.909271	154.100000
304.002472	153.420000
304.095673	153.140000
304.188934	152.660000
304.282104	153.760000
304.375336	154.040000
304.468506	154.440000
304.561768	154.540000
304.654968	155.180000
304.748169	154.460000
304.841370	154.440000
304.934601	154.640000
305.027802	154.120000
305.121002	153.820000
305.214233	154.000000
305.307434	154.040000
305.400665	154.820000
305.493866	155.160000
305.587097	155.280000
305.680298	154.800000
305.773499	155.260000
305.866730	154.260000
305.959930	155.080000
306.053162	155.280000
306.146393	155.160000
306.239594	154.280000
306.332825	154.180000
306.426025	154.220000
306.519287	154.100000
306.612488	154.320000
306.705719	154.420000
306.798920	155.000000
306.892181	154.080000
306.985352	153.540000
307.078613	153.160000
307.171844	153.520000
307.265045	152.720000
307.358276	152.660000
307.451508	153.080000
307.544739	153.820000
307.637970	153.400000
307.731201	153.420000
307.824402	154.040000
307.917633	154.480000
308.010864	154.740000
308.104095	155.400000
308.197327	155.760000
308.290558	155.720000
308.383789	154.960000
308.477020	154.360000
308.570251	153.480000
308.663483	153.100000
308.756714	153.060000
308.849976	153.340000
308.943176	154.120000
309.036438	154.420000
309.129639	154.220000
309.222900	154.220000
309.316101	154.200000
309.409393	153.300000
309.502625	152.940000
309.595856	153.280000
309.689087	153.460000
309.782318	153.480000
309.875580	153.620000
309.968811	154.140000
310.062042	153.960000
310.155273	153.480000
310.248535	153.800000
310.341766	153.580000
310.434998	153.300000
310.528259	153.400000
310.621490	153.820000
310.714722	153.220000
310.807983	153.440000
310.901215	153.440000
310.994476	153.920000
311.087708	153.600000
311.181000	154.000000
311.274200	153.780000
311.367462	153.940000
311.460693	153.360000
311.553986	154.140000
311.647186	154.260000
311.740479	155.120000
311.833710	154.840000
311.926971	154.920000
312.020203	154.100000
312.113464	153.960000
312.206726	153.080000
312.299957	153.400000
312.393219	154.100000
312.486481	154.320000
312.579712	154.100000
312.672974	154.460000
312.766235	154.420000
312.859497	154.240000
312.952759	154.100000
313.045990	154.920000
313.139252	154.440000
313.232513	154.660000
313.325775	154.400000
313.419037	154.380000
313.512299	153.360000
313.605530	154.160000
313.698822	154.100000
313.792053	154.320000
313.885345	153.940000
313.978577	154.360000
314.071869	153.660000
314.165131	153.660000
314.258392	153.960000
314.351654	154.300000
314.444916	153.660000
314.538177	154.320000
314.631439	154.600000
314.724701	153.920000
314.817993	153.760000
314.911255	154.180000
315.004517	153.620000
315.097778	153.420000
315.191040	154.100000
315.284302	154.420000
315.377594	154.360000
315.470856	154.540000
315.564117	154.060000
315.657379	153.280000
315.750671	153.180000
315.843933	153.620000
315.937195	152.840000
316.030518	152.740000
316.123749	152.860000
316.217041	153.420000
316.310303	153.080000
316.403595	153.800000
316.496857	154.360000
316.590149	154.820000
316.683411	154.140000
316.776703	153.780000
316.869965	153.720000
316.963257	153.360000
317.056519	152.460000
317.149811	152.380000
317.243073	152.660000
317.336365	152.900000
317.429626	153.140000
317.522919	154.020000
317.616180	154.040000
317.709473	153.760000
317.802765	153.620000
317.896027	153.620000
317.989319	153.820000
318.082611	153.560000
318.175873	153.900000
318.269165	153.800000
318.362488	153.720000
318.455750	153.040000
318.549042	154.000000
318.642303	154.520000
318.735626	154.280000
318.828888	154.680000
318.922211	154.400000
319.015472	154.680000
319.108765	153.800000
319.202057	153.680000
319.295349	153.500000
319.388641	153.840000
319.481934	153.040000
319.575226	153.140000
319.668518	153.760000
319.761810	153.700000
319.855103	153.780000
319.948395	153.840000
320.041687	154.200000
320.134979	154.140000
320.228271	154.200000
320.321564	153.980000
320.414856	153.880000
320.508148	153.320000
320.601440	153.240000
320.694763	153.160000
320.788025	154.060000
320.881348	154.180000
320.974640	154.280000
321.067963	153.560000
321.161224	153.480000
321.254547	152.560000
321.347839	153.040000
321.441162	152.900000
321.534454	153.460000
321.627747	153.380000
321.721069	154.260000
321.814362	154.080000
321.907654	154.420000
322.000946	154.320000
322.094269	154.980000
322.187561	154.380000
322.280884	154.600000
322.374176	154.660000
322.467468	155.280000
322.560791	155.000000
322.654083	155.560000
322.747406	155.560000
322.840698	155.780000
322.934021	155.720000
323.027344	155.820000
323.120636	155.400000
323.213959	155.180000
323.307251	154.640000
323.400574	154.280000
323.493866	153.720000
323.587219	153.840000
323.680511	154.360000
323.773834	154.660000
323.867157	154.740000
323.960449	155.200000
324.053772	154.720000
324.147095	153.960000
324.240387	154.520000
324.333710	154.380000
324.427032	154.180000
324.520355	154.680000
324.613647	154.580000
324.706970	154.160000
324.800293	154.060000
324.893616	154.460000
324.986938	154.600000
325.080231	154.860000
325.173553	155.180000
325.266876	155.960000
325.360199	155.800000
325.453522	155.140000
325.546875	154.600000
325.640167	154.640000
325.733521	154.420000
325.826813	154.500000
325.920166	154.820000
326.013489	154.820000
326.106812	153.860000
326.200134	153.280000
326.293457	152.480000
326.386780	152.540000
326.480103	152.820000
326.573425	153.120000
326.666748	153.340000
326.760071	154.060000
326.853424	153.780000
326.946747	153.700000
327.040070	154.620000
327.133392	154.540000
327.226715	153.700000
327.320068	153.620000
327.413391	154.100000
327.506714	153.160000
327.600037	153.040000
327.693390	153.720000
327.786713	153.420000
327.880066	153.240000
327.973358	153.940000
328.066742	154.640000
328.160034	154.780000
328.253418	155.260000
328.346710	155.160000
328.440063	154.600000
328.533417	153.960000
328.626740	154.020000
328.720093	153.840000
328.813416	153.780000
328.906769	153.800000
329.000092	153.940000
329.093445	153.940000
329.186768	153.940000
329.280121	154.540000
329.373444	155.020000
329.466797	155.400000
329.560120	155.000000
329.653473	154.960000
329.746796	154.160000
329.840149	153.860000
329.933502	153.500000
330.026825	153.720000
330.120178	153.700000
330.213562	153.800000
330.306854	153.820000
330.400238	153.980000
330.493561	153.500000
330.586945	154.260000
330.680237	154.580000
330.773621	154.540000
330.866974	154.620000
330.960327	155.140000
331.053680	154.740000
331.147003	154.740000
331.240356	155.040000
331.333710	154.740000
331.427063	154.320000
331.520416	153.980000
331.613770	153.340000
331.707123	153.440000
331.800476	153.620000
331.893829	154.700000
331.987152	155.120000
332.080505	155.440000
332.173859	155.180000
332.267212	154.660000
332.360565	153.600000
332.453918	153.120000
332.547333	153.000000
332.640656	152.960000
332.734039	153.640000
332.827362	153.680000
332.920746	154.140000
333.014069	154.740000
333.107452	155.400000
333.200806	155.120000
333.294159	155.380000
333.387543	154.700000
333.480896	153.880000
333.574249	152.980000
333.667603	152.760000
333.760956	153.300000
333.854340	153.820000
333.947693	153.800000
334.041046	154.080000
334.134430	154.300000
334.227783	153.500000
334.321136	153.200000
334.414520	153.320000
334.507874	153.280000
334.601227	153.500000
334.694611	153.660000
334.787964	153.700000
334.881348	154.000000
334.974701	154.120000
335.068085	153.680000
335.161438	154.040000
335.254822	154.360000
335.348175	154.320000
335.441559	153.900000
335.534943	154.600000
335.628296	154.200000
335.721680	154.080000
335.815033	154.400000
335.908417	154.700000
336.001770	154.300000
336.095154	154.180000
336.188538	153.840000
336.281891	153.340000
336.375275	153.080000
336.468658	152.900000
336.562012	152.820000
336.655396	153.420000
336.748779	154.020000
336.842133	154.040000
336.935516	154.100000
337.028900	154.120000
337.122284	153.840000
337.215637	153.620000
337.309021	153.500000
337.402435	153.400000
337.495789	153.340000
337.589203	153.180000
337.682526	152.780000
337.775940	153.240000
337.869324	153.360000
337.962708	153.440000
338.056091	154.100000
338.149475	154.120000
338.242859	154.120000
338.336243	154.060000
338.429626	154.320000
338.523010	153.860000
338.616394	153.820000
338.709778	153.520000
338.803162	153.720000
338.896545	153.860000
338.989929	153.380000
339.083313	153.720000
339.176697	153.660000
339.270081	153.420000
339.363464	153.600000
339.456848	154.360000
339.550232	153.940000
339.643616	154.100000
339.737030	154.340000
339.830383	153.820000
339.923828	153.780000
340.017181	154.020000
340.110596	153.860000
340.203949	153.500000
340.297363	153.480000
340.390778	153.420000
340.484161	153.280000
340.577545	153.480000
340.670959	153.720000
340.764343	153.840000
340.857727	153.920000
340.951111	153.760000
341.044525	153.620000
341.137909	153.180000
341.231293	152.920000
341.324707	152.180000
341.418091	153.060000
341.511505	153.160000
341.604889	153.660000
341.698303	154.100000
341.791687	154.600000
341.885071	153.980000
341.978485	153.960000
342.071899	154.160000
342.165283	154.240000
342.258698	154.380000
342.352081	155.040000
342.445496	155.580000
342.538879	155.460000
342.632324	155.140000
342.725708	155.080000
342.819122	154.300000
342.912506	154.060000
343.005920	153.880000
343.099335	154.720000
343.192719	154.380000
343.286133	154.580000
343.379547	154.600000
343.472931	154.600000
343.566345	153.600000
343.659760	154.140000
343.753143	153.920000
343.846558	153.360000
343.939972	153.540000
344.033386	154.000000
344.126770	153.600000
344.220184	153.780000
344.313599	154.380000
344.407043	154.180000
344.500427	153.720000
344.593872	154.480000
344.687225	154.060000
344.780670	153.620000
344.874054	153.720000
344.967499	154.260000
345.060913	153.620000
345.154327	153.880000
345.247742	153.880000
345.341156	153.520000
345.434570	153.320000
345.527985	153.200000
345.621399	153.440000
345.714813	153.320000
345.808228	153.660000
345.901642	153.300000
345.995056	153.000000
346.088470	153.000000
346.181885	153.340000
346.275299	153.060000
346.368713	153.120000
346.462128	153.260000
346.555573	153.340000
346.648987	153.440000
346.742401	153.520000
346.835815	154.420000
346.929260	154.400000
347.022644	154.080000
347.116119	153.880000
347.209503	154.320000
347.302948	154.540000
347.396362	155.700000
347.489807	156.100000
347.583221	156.880000
347.676636	156.420000
347.770050	155.500000
347.863495	154.460000
347.956909	154.560000
348.050323	153.840000
348.143768	154.080000
348.237183	153.680000
348.330597	154.300000
348.424042	154.300000
348.517456	154.660000
348.610901	154.600000
348.704315	154.720000
348.797760	153.980000
348.891174	153.380000
348.984619	152.920000
349.078033	153.420000
349.171448	154.100000
349.264923	154.000000
349.358337	154.200000
349.451782	154.180000
349.545197	153.260000
349.638641	152.620000
349.732086	152.400000
349.825500	152.960000
349.918945	152.800000
350.012390	153.880000
350.105804	154.440000
350.199249	154.980000
350.292664	154.980000
350.386108	155.040000
350.479553	154.740000
350.572968	154.460000
350.666412	154.660000
350.759857	154.380000
350.853302	155.000000
350.946716	154.420000
351.040161	154.600000
351.133606	154.440000
351.227081	154.280000
351.320465	154.920000
351.413940	155.360000
351.507355	155.180000
351.600830	155.380000
351.694244	155.380000
351.787720	154.540000
351.881104	154.240000
351.974579	154.300000
352.067993	155.020000
352.161469	155.220000
352.254883	154.660000
352.348358	154.700000
352.441803	154.600000
352.535248	153.840000
352.628693	154.000000
352.722137	154.340000
352.815582	154.760000
352.909027	155.160000
353.002472	155.020000
353.095917	154.980000
353.189362	155.420000
353.282806	154.980000
353.376251	154.720000
353.469696	154.440000
353.563141	154.700000
353.656586	154.280000
353.750061	153.940000
353.843475	153.640000
353.936981	154.420000
354.030396	153.700000
354.123871	153.640000
354.217285	154.560000
354.310760	154.760000
354.404175	154.720000
354.497681	154.320000
354.591095	154.280000
354.684570	153.420000
354.777985	153.300000
354.871490	152.620000
354.964935	153.620000
355.058380	153.700000
355.151855	153.600000
355.245300	154.100000
355.338745	154.380000
355.432220	153.980000
355.525665	153.620000
355.619110	154.380000
355.712585	153.880000
355.806030	153.580000
355.899475	153.080000
355.992950	153.680000
356.086426	153.900000
356.179871	154.140000
356.273346	154.300000
356.366791	154.580000
356.460266	154.660000
356.553711	153.940000
356.647186	153.900000
356.740631	153.820000
356.834106	153.640000
356.927551	153.500000
357.021027	153.640000
357.114471	153.680000
357.207947	153.940000
357.301422	154.520000
357.394867	154.480000
357.488342	154.600000
357.581818	154.560000
357.675262	154.640000
357.768738	154.380000
357.862213	153.560000
357.955658	153.800000
358.049133	153.780000
358.142609	154.040000
358.236053	153.660000
358.329529	154.240000
358.423035	154.080000
358.516449	153.620000
358.609955	153.780000
358.703400	154.660000
358.796906	154.920000
358.890350	154.320000
358.983826	155.060000
359.077271	154.320000
359.170776	153.960000
359.264221	153.540000
359.357727	154.000000
359.451172	153.800000
359.544647	153.860000
359.638123	153.700000
359.731598	154.220000
359.825073	154.600000
359.918549	154.860000
360.012024	155.040000
360.105499	154.440000
360.198975	154.380000
360.292450	154.200000
360.385925	153.920000
360.479401	153.420000
360.572876	154.200000
360.666351	154.420000
360.759857	154.160000
360.853302	154.140000
360.946808	153.940000
361.040253	154.120000
361.133759	153.420000
361.227203	153.580000
361.320709	152.940000
361.414154	153.580000
361.507660	153.540000
361.601105	154.540000
361.694641	155.040000
361.788086	155.420000
361.881592	155.860000
361.975067	155.320000
362.068542	155.100000
362.162018	154.720000
362.255524	154.440000
362.348999	154.180000
362.442474	154.420000
362.535950	153.580000
362.629456	153.240000
362.722931	153.340000
362.816406	153.520000
362.909882	154.220000
363.003387	154.340000
363.096863	154.960000
363.190338	155.200000
363.283875	154.820000
363.377319	154.120000
363.470825	154.760000
363.564301	154.040000
363.657806	154.140000
363.751282	153.620000
363.844788	154.660000
363.938232	153.820000
364.031769	154.700000
364.125214	154.900000
364.218750	155.880000
364.312225	154.760000
364.405731	155.220000
364.499207	154.480000
364.592712	154.320000
364.686188	153.640000
364.779694	153.800000
364.873169	153.880000
364.966675	153.880000
365.060150	153.900000
365.153656	154.820000
365.247131	154.680000
365.340637	155.080000
365.434143	155.760000
365.527618	155.740000
365.621155	154.520000
365.714600	154.820000
365.808136	154.340000
365.901611	153.360000
365.995117	153.140000
366.088593	153.660000
366.182129	153.360000
366.275604	153.640000
366.369110	154.200000
366.462585	154.280000
366.556122	154.680000
366.649567	154.740000
366.743103	154.580000
366.836609	154.140000
366.930115	154.240000
367.023590	154.260000
367.117096	154.160000
367.210602	153.980000
367.304108	154.620000
367.397614	155.320000
367.491119	155.420000
367.584595	155.660000
367.678101	156.160000
367.771606	155.520000
367.865112	154.640000
367.958649	153.800000
368.052124	153.640000
368.145660	153.340000
368.239136	153.940000
368.332672	154.260000
368.426147	154.840000
368.519684	154.760000
368.613159	154.700000
368.706696	154.420000
368.800171	154.440000
368.893707	154.080000
368.987183	154.240000
369.080719	154.260000
369.174225	154.240000
369.267731	154.320000
369.361237	154.500000
369.454742	154.120000
369.548248	154.720000
369.641754	154.440000
369.735260	154.100000
369.828766	153.380000
369.922272	154.040000
370.015808	153.100000
370.109314	153.080000
370.202820	152.820000
370.296356	154.140000
370.389832	153.960000
370.483368	153.820000
370.576874	153.680000
370.670410	153.860000
370.763885	152.740000
370.857422	152.680000
370.950928	152.760000
371.044464	153.720000
371.137939	153.580000
371.231476	154.040000
371.324982	154.760000
371.418518	155.200000
371.512024	154.740000
371.605560	154.760000
371.699066	154.780000
371.792572	153.780000
371.886108	153.980000
371.979614	153.640000
372.073120	154.160000
372.166656	154.040000
372.260162	154.500000
372.353668	153.820000
372.447205	153.840000
372.540710	153.540000
372.634277	153.480000
372.727753	153.340000
372.821320	153.800000
372.914795	153.660000
373.008362	153.720000
373.101837	153.680000
373.195404	153.560000
373.288879	153.320000
373.382446	154.180000
373.475922	154.360000
373.569489	155.440000
373.662964	155.900000
373.756531	156.100000
373.850037	156.020000
373.943573	155.760000
374.037109	154.560000
374.130615	154.580000
374.224152	154.800000
374.317657	154.120000
374.411194	154.820000
374.504730	154.860000
374.598236	154.140000
374.691772	153.800000
374.785309	154.000000
374.878815	153.000000
374.972351	153.680000
375.065887	153.540000
375.159454	154.300000
375.252930	154.160000
375.346497	154.640000
375.440002	154.920000
375.533569	155.300000
375.627045	154.420000
375.720612	154.860000
375.814117	155.200000
375.907684	154.400000
376.001160	154.120000
376.094727	154.040000
376.188232	154.400000
376.281799	154.240000
376.375336	154.340000
376.468872	155.160000
376.562408	155.380000
376.655914	154.660000
376.749451	154.700000
376.842987	154.980000
376.936523	154.600000
377.030060	154.680000
377.123596	155.000000
377.217133	154.300000
377.310669	154.100000
377.404205	154.460000
377.497772	154.960000
377.591278	154.880000
377.684845	155.840000
377.778351	156.060000
377.871918	155.760000
377.965424	154.660000
378.058990	154.420000
378.152496	153.920000
378.246063	154.000000
378.339569	154.160000
378.433136	154.360000
378.526642	154.640000
378.620209	154.740000
378.713745	154.380000
378.807312	154.720000
378.900848	154.960000
378.994385	155.000000
379.087921	154.160000
379.181458	154.300000
379.274994	153.340000
379.368530	153.160000
379.462097	153.280000
379.555634	154.040000
379.649170	153.520000
379.742706	153.840000
379.836273	154.160000
379.929810	153.840000
380.023376	153.520000
380.116882	153.720000
380.210449	153.720000
380.303986	153.520000
380.397552	153.000000
380.491058	153.220000
380.584656	152.820000
380.678162	152.960000
380.771729	153.240000
380.865265	154.480000
380.958832	154.620000
381.052368	155.300000
381.145935	155.620000
381.239471	155.740000
381.333008	155.400000
381.426575	155.120000
381.520111	155.320000
381.613647	155.300000
381.707214	155.040000
381.800751	154.320000
381.894318	154.740000
381.987854	154.080000
382.081421	153.780000
382.174988	153.880000
382.268524	153.960000
382.362091	153.620000
382.455627	154.780000
382.549194	154.440000
382.642731	153.780000
382.736298	153.380000
382.829834	153.200000
382.923401	153.240000
383.016937	153.580000
383.110504	153.920000
383.204041	154.480000
383.297607	154.880000
383.391174	153.720000
383.484741	154.220000
383.578278	154.040000
383.671844	153.860000
383.765411	153.380000
383.858948	154.000000
383.952515	153.720000
384.046051	154.560000
384.139618	155.080000
384.233185	155.700000
384.326721	155.800000
384.420288	156.000000
384.513855	155.580000
384.607422	155.300000
384.700989	155.400000
384.794525	154.700000
384.888123	155.000000
384.981659	154.940000
385.075226	154.560000
385.168762	153.900000
385.262360	154.280000
385.355896	152.840000
385.449463	152.860000
385.542999	153.080000
385.636597	154.180000
385.730164	154.240000
385.823730	154.360000
385.917267	154.020000
386.010834	154.200000
386.104401	153.640000
386.197968	153.780000
386.291534	154.280000
386.385101	154.660000
386.478668	154.960000
386.572235	154.840000
386.665802	154.440000
386.759338	154.120000
386.852905	153.940000
386.946472	153.500000
387.040070	153.580000
387.133606	153.520000
387.227203	154.000000
387.320740	154.260000
387.414337	153.820000
387.507874	153.740000
387.601471	154.120000
387.695007	153.640000
387.788605	153.360000
387.882141	154.120000
387.975739	154.120000
388.069275	153.860000
388.162872	154.100000
388.256439	154.000000
388.350037	153.280000
388.443604	153.180000
388.537170	153.060000
388.630737	153.700000
388.724304	154.140000
388.817871	154.380000
388.911438	154.380000
389.005005	154.840000
389.098602	154.800000
389.192169	154.380000
389.285736	154.980000
389.379333	154.840000
389.472870	154.160000
389.566467	153.860000
389.660034	154.060000
389.753632	153.400000
389.847168	154.060000
389.940765	154.440000
390.034332	154.720000
390.127930	154.080000
390.221466	154.240000
390.315063	153.540000
390.408630	152.980000
390.502228	151.940000
390.595795	152.760000
390.689362	152.660000
390.782959	153.220000
390.876526	153.820000
390.970093	153.960000
391.063690	154.060000
391.157257	154.400000
391.250824	154.620000
391.344421	154.420000
391.437988	155.240000
391.531555	155.220000
391.625153	155.020000
391.718750	154.880000
391.812317	154.940000
391.905914	154.200000
391.999481	154.280000
392.093079	154.520000
392.186615	154.660000
392.280243	155.000000
392.373779	155.280000
392.467407	155.660000
392.560944	155.380000
392.654572	154.780000
392.748108	154.120000
392.841736	153.940000
392.935303	153.240000
393.028900	153.160000
393.122467	153.380000
393.216064	153.340000
393.309631	153.160000
393.403229	152.920000
393.496796	152.940000
393.590393	152.020000
393.683990	152.380000
393.777557	152.820000
393.871155	153.360000
393.964722	153.980000
394.058350	154.620000
394.151917	154.760000
394.245514	154.540000
394.339081	154.580000
394.432678	154.620000
394.526245	154.620000
394.619873	154.000000
394.713409	154.280000
394.807037	153.840000
394.900604	153.580000
394.994202	153.700000
395.087769	154.100000
395.181396	153.640000
395.274994	154.540000
395.368561	153.960000
395.462158	154.380000
395.555756	153.900000
395.649353	154.460000
395.742920	153.880000
395.836517	154.540000
395.930115	153.360000
396.023712	153.840000
396.117279	153.840000
396.210876	153.020000
396.304474	152.940000
396.398071	153.900000
396.491669	154.200000
396.585266	153.720000
396.678833	153.980000
396.772461	153.900000
396.866028	153.500000
396.959656	153.320000
397.053223	153.820000
397.146851	153.900000
397.240417	154.020000
397.334015	154.760000
397.427582	154.520000
397.521210	154.280000
397.614807	154.600000
397.708405	154.620000
397.802002	153.980000
397.895599	154.680000
397.989197	154.600000
398.082794	154.280000
398.176392	154.460000
398.269989	154.540000
398.363586	154.360000
398.457184	155.340000
398.550781	155.820000
398.644379	155.580000
398.737976	155.480000
398.831573	155.880000
398.925201	155.420000
399.018768	156.140000
399.112396	157.560000
399.205963	160.300000
399.299591	163.580000
399.393158	168.720000
399.486786	175.920000
399.580353	187.660000
399.673981	210.500000
399.767578	250.080000
399.861206	310.140000
399.954773	386.740000
400.048401	463.080000
400.141998	520.560000
400.235596	543.680000
400.329193	523.440000
400.422791	466.620000
400.516418	391.360000
400.610016	316.540000
400.703613	255.580000
400.797211	212.880000
400.890808	187.320000
400.984436	174.860000
401.078033	168.620000
401.171631	164.220000
401.265259	162.560000
401.358826	161.160000
401.452484	160.260000
401.546051	158.980000
401.639679	157.920000
401.733246	157.380000
401.826904	157.000000
401.920471	155.620000
402.014099	155.240000
402.107697	155.260000
402.201324	155.000000
402.294891	154.700000
402.388550	155.460000
402.482147	155.480000
402.575745	155.040000
402.669373	154.580000
402.762970	154.520000
402.856567	154.100000
402.950195	154.380000
403.043793	154.540000
403.137390	155.520000
403.231018	154.680000
403.324615	155.120000
403.418243	154.620000
403.511841	155.420000
403.605469	154.960000
403.699066	155.880000
403.792694	155.740000
403.886292	156.020000
403.979919	155.420000
404.073517	154.860000
404.167145	154.900000
404.260712	154.760000
404.354370	154.380000
404.447937	154.460000
404.541595	154.800000
404.635162	154.940000
404.728821	155.720000
404.822418	155.160000
404.916046	155.320000
405.009644	155.480000
405.103271	155.500000
405.196899	154.640000
405.290497	155.260000
405.384125	155.240000
405.477722	154.840000
405.571350	154.460000
405.664948	154.900000
405.758575	154.600000
405.852203	154.120000
405.945801	154.120000
406.039429	154.160000
406.133057	153.680000
406.226654	153.800000
406.320312	153.840000
406.413879	154.200000
406.507538	154.200000
406.601135	154.100000
406.694763	154.820000
406.788361	154.700000
406.882019	154.240000
406.975586	154.480000
407.069244	155.060000
407.162872	154.480000
407.256470	154.500000
407.350098	154.440000
407.443726	154.120000
407.537323	153.460000
407.630951	153.840000
407.724579	153.660000
407.818207	154.300000
407.911804	154.380000
408.005432	154.320000
408.099060	154.380000
408.192688	155.020000
408.286285	154.440000
408.379913	154.100000
408.473572	154.420000
408.567169	153.720000
408.660828	153.380000
408.754395	153.580000
408.848053	153.640000
408.941650	153.740000
409.035309	153.420000
409.128906	153.560000
409.222565	153.460000
409.316132	153.480000
409.409790	153.240000
409.503387	153.460000
409.597046	153.460000
409.690674	153.920000
409.784302	154.020000
409.877930	154.020000
409.971558	154.400000
410.065186	154.080000
410.158783	153.700000
410.252411	153.700000
410.346039	153.960000
410.439667	153.920000
410.533295	154.440000
410.626923	154.640000
410.720551	154.360000
410.814209	154.920000
410.907806	154.720000
411.001465	154.060000
411.095062	154.180000
411.188721	154.580000
411.282318	153.780000
411.375977	153.620000
411.469574	153.980000
411.563232	153.540000
411.656830	153.340000
411.750488	153.520000
411.844086	153.580000
411.937744	153.820000
412.031372	153.900000
412.125000	154.160000
412.218628	154.420000
412.312256	155.120000
412.405884	155.260000
412.499512	154.980000
412.593170	155.020000
412.686798	154.840000
412.780426	154.060000
412.874054	154.240000
412.967682	154.740000
413.061310	155.060000
413.154968	155.200000
413.248566	155.180000
413.342224	154.480000
413.435852	154.300000
413.529510	153.620000
413.623108	152.920000
413.716766	153.000000
413.810364	153.840000
413.904022	153.800000
413.997650	153.620000
414.091309	154.520000
414.184906	154.540000
414.278564	153.860000
414.372192	154.220000
414.465851	154.680000
414.559479	154.200000
414.653107	155.240000
414.746735	155.020000
414.840393	154.860000
414.934021	155.200000
415.027649	154.520000
415.121277	154.120000
415.214935	154.440000
415.308563	154.380000
415.402191	153.440000
415.495850	153.940000
415.589478	153.460000
415.683136	153.080000
415.776733	153.360000
415.870422	154.340000
415.964020	154.000000
416.057678	154.240000
416.151306	154.680000
416.244965	154.540000
416.338562	154.120000
416.432251	155.000000
416.525848	155.600000
416.619507	155.920000
416.713165	155.940000
416.806793	156.000000
416.900421	155.700000
416.994080	154.840000
417.087708	154.380000
417.181366	153.900000
417.274994	154.020000
417.368622	154.300000
417.462280	154.820000
417.555908	154.780000
417.649567	154.840000
417.743195	154.780000
417.836853	154.380000
417.930481	154.440000
418.024170	154.480000
418.117767	155.000000
418.211426	155.200000
418.305054	155.460000
418.398712	154.600000
418.492340	154.520000
418.585999	154.780000
418.679626	154.520000
418.773285	154.500000
418.866913	155.320000
418.960571	155.460000
419.054230	155.160000
419.147858	155.360000
419.241516	155.340000
419.335144	154.980000
419.428802	155.040000
419.522461	154.760000
419.616089	154.440000
419.709747	154.420000
419.803375	154.660000
419.897034	154.600000
419.990662	154.800000
420.084320	155.180000
420.177979	155.640000
420.271606	155.640000
420.365295	156.060000
420.458893	156.020000
420.552582	156.180000
420.646210	155.840000
420.739868	155.560000
420.833496	155.160000
420.927155	154.660000
421.020782	154.140000
421.114471	153.580000
421.208069	153.960000
421.301758	154.220000
421.395386	154.520000
421.489044	154.560000
421.582703	154.640000
421.676361	155.000000
421.769989	154.360000
421.863647	154.560000
421.957306	154.680000
422.050934	155.140000
422.144592	154.760000
422.238251	154.620000
422.331909	154.240000
422.425537	153.940000
422.519196	153.560000
422.612854	153.120000
422.706543	153.360000
422.800140	153.920000
422.893829	153.920000
422.987457	153.620000
423.081146	153.800000
423.174744	154.640000
423.268433	153.940000
423.362061	153.760000
423.455750	153.940000
423.549347	154.020000
423.643036	153.120000
423.736664	153.980000
423.830353	154.340000
423.924011	155.060000
424.017639	154.400000
424.111298	154.560000
424.204956	154.080000
424.298615	154.080000
424.392273	153.540000
424.485931	154.020000
424.579559	154.360000
424.673218	154.340000
424.766876	154.420000
424.860535	153.900000
424.954193	153.580000
425.047882	153.880000
425.141510	154.260000
425.235199	154.340000
425.328796	154.580000
425.422485	154.660000
425.516113	153.860000
425.609802	153.700000
425.703430	153.540000
425.797119	153.300000
425.890747	153.400000
425.984436	153.540000
426.078064	153.520000
426.171753	153.520000
426.265411	153.760000
426.359070	154.220000
426.452728	154.240000
426.546356	154.080000
426.640015	153.820000
426.733673	153.840000
426.827332	153.380000
426.920990	154.200000
427.014648	153.860000
427.108307	154.320000
427.201965	155.160000
427.295624	155.520000
427.389282	154.620000
427.482941	155.120000
427.576630	155.100000
427.670258	153.960000
427.763947	153.400000
427.857574	153.260000
427.951263	153.000000
428.044922	152.740000
428.138611	153.300000
428.232239	154.200000
428.325928	155.140000
428.419556	155.660000
428.513245	155.600000
428.606903	155.860000
428.700562	155.380000
428.794220	154.380000
428.887878	153.780000
428.981537	153.860000
429.075195	153.820000
429.168854	154.240000
429.262512	154.620000
429.356201	155.140000
429.449860	155.240000
429.543518	155.180000
429.637177	155.200000
429.730835	155.080000
429.824493	154.700000
429.918182	154.960000
430.011810	154.260000
430.105530	153.360000
430.199158	153.380000
430.292847	153.500000
430.386475	152.620000
430.480164	152.600000
430.573792	152.880000
430.667511	153.080000
430.761139	153.280000
430.854828	154.360000
430.948456	154.620000
431.042145	154.940000
431.135834	154.680000
431.229492	154.760000
431.323151	154.740000
431.416809	154.800000
431.510468	154.900000
431.604156	154.900000
431.697815	154.480000
431.791473	153.800000
431.885132	153.680000
431.978821	154.120000
432.072479	154.560000
432.166138	155.120000
432.259827	155.340000
432.353485	155.640000
432.447174	155.100000
432.540802	154.820000
432.634491	154.880000
432.728149	155.080000
432.821838	156.020000
432.915466	155.840000
433.009186	156.000000
433.102814	155.380000
433.196503	155.080000
433.290131	154.580000
433.383850	155.020000
433.477509	155.060000
433.571167	155.980000
433.664856	156.460000
433.758514	156.680000
433.852173	156.540000
433.945862	156.280000
434.039520	155.920000
434.133179	155.280000
434.226868	154.680000
434.320526	153.980000
434.414185	154.860000
434.507874	154.360000
434.601562	155.060000
434.695221	155.100000
434.788910	155.720000
434.882538	155.320000
434.976257	155.000000
435.069885	154.800000
435.163574	154.980000
435.257233	154.680000
435.350922	154.620000
435.444580	154.620000
435.538269	154.200000
435.631897	154.660000
435.725616	155.220000
435.819275	155.700000
435.912964	156.420000
436.006622	156.960000
436.100311	156.360000
436.193970	155.460000
436.287628	154.500000
436.381317	153.940000
436.474976	153.220000
436.568665	152.880000
436.662323	153.140000
436.756012	153.580000
436.849670	153.900000
436.943390	154.300000
437.037018	154.500000
437.130737	154.820000
437.224365	154.500000
437.318085	154.480000
437.411713	154.380000
437.505432	154.820000
437.599060	155.260000
437.692780	155.980000
437.786407	155.920000
437.880127	156.100000
437.973755	155.720000
438.067474	154.980000
438.161133	154.700000
438.254822	155.200000
438.348480	154.480000
438.442169	155.280000
438.535828	155.720000
438.629517	155.220000
438.723175	154.420000
438.816864	155.480000
438.910553	154.520000
439.004211	154.040000
439.097900	153.860000
439.191559	154.280000
439.285248	153.220000
439.378906	153.580000
439.472626	153.460000
439.566284	153.540000
439.659973	153.480000
439.753632	153.420000
439.847321	153.740000
439.940979	153.920000
440.034698	153.960000
440.128326	153.280000
440.222046	153.520000
440.315674	152.260000
440.409393	152.680000
440.503082	152.540000
440.596741	153.300000
440.690430	153.680000
440.784088	154.180000
440.877777	153.420000
440.971466	153.400000
441.065125	152.980000
441.158813	152.840000
441.252502	153.200000
441.346161	153.580000
441.439850	154.200000
441.533539	154.180000
441.627197	154.400000
441.720886	154.260000
441.814606	154.400000
441.908234	154.600000
442.001953	154.720000
442.095612	154.460000
442.189301	154.280000
442.282959	154.260000
442.376678	153.140000
442.470306	153.720000
442.564026	153.640000
442.657684	154.000000
442.751404	153.960000
442.845032	154.980000
442.938751	154.040000
443.032440	154.120000
443.126099	153.740000
443.219788	154.020000
443.313477	153.440000
443.407166	154.000000
443.500824	154.100000
443.594513	154.200000
443.688202	154.140000
443.781891	153.740000
443.875549	153.160000
443.969238	153.000000
444.062927	153.000000
444.156647	152.580000
444.250275	153.360000
444.343994	153.960000
444.437653	154.100000
444.531372	154.160000
444.625031	154.100000
444.718719	153.760000
444.812378	153.680000
444.906097	153.800000
444.999756	153.360000
445.093445	153.680000
445.187103	153.660000
445.280823	154.000000
445.374512	153.160000
445.468201	153.500000
445.561859	153.320000
445.655548	153.300000
445.749237	152.720000
445.842926	153.260000
445.936615	153.520000
446.030304	153.140000
446.123962	153.740000
446.217651	153.640000
446.311340	154.040000
446.405029	153.600000
446.498749	153.960000
446.592407	153.520000
446.686096	153.980000
446.779755	153.500000
446.873474	153.960000
446.967133	154.080000
447.060852	153.560000
447.154510	153.180000
447.248230	153.540000
447.341858	153.580000
447.435577	153.000000
447.529236	153.100000
447.622955	152.900000
447.716644	152.940000
447.810333	152.860000
447.904022	153.680000
447.997711	153.720000
448.091400	154.320000
448.185059	154.100000
448.278748	154.160000
448.372437	153.940000
448.466125	154.280000
448.559814	153.880000
448.653503	154.540000
448.747192	154.780000
448.840912	154.740000
448.934570	154.360000
449.028290	154.880000
449.121948	154.280000
449.215637	153.520000
449.309296	153.200000
449.403015	153.700000
449.496674	153.520000
449.590393	153.400000
449.684052	153.420000
449.777771	154.420000
449.871429	153.560000
449.965149	153.480000
450.058838	153.880000
450.152527	154.660000
450.246216	154.100000
450.339905	154.960000
450.433594	154.820000
450.527283	155.100000
450.620972	154.580000
450.714661	154.420000
450.808350	154.160000
450.902039	154.360000
450.995728	154.000000
451.089417	153.620000
451.183105	153.380000
451.276794	154.040000
451.370514	153.520000
451.464172	152.700000
451.557892	152.980000
451.651550	153.600000
451.745270	152.740000
451.838928	152.180000
451.932648	152.820000
452.026306	153.340000
452.120026	152.880000
452.213684	153.480000
452.307404	154.260000
452.401062	154.320000
452.494781	154.360000
452.588470	154.480000
452.682159	154.020000
452.775848	153.700000
452.869537	153.280000
452.963226	152.760000
453.056915	152.680000
453.150604	152.760000
453.244293	153.120000
453.337982	154.100000
453.431671	154.520000
453.525360	155.240000
453.619049	155.400000
453.712769	155.560000
453.806427	154.760000
453.900146	154.180000
453.993805	153.500000
454.087555	154.040000
454.181213	154.000000
454.274933	154.040000
454.368591	154.060000
454.462311	154.080000
454.555969	153.280000
454.649689	154.040000
454.743347	153.700000
454.837067	154.720000
454.930756	155.300000
455.024445	155.480000
455.118134	154.420000
455.211853	154.720000
455.305542	153.940000
455.399231	153.300000
455.492920	153.400000
455.586609	153.600000
455.680298	154.180000
455.773987	153.760000
455.867676	154.100000
455.961365	154.080000
456.055084	153.980000
456.148773	153.320000
456.242493	153.680000
456.336151	153.420000
456.429871	153.800000
456.523529	154.360000
456.617249	154.500000
456.710907	155.200000
456.804626	155.200000
456.898315	154.300000
456.992035	154.000000
457.085693	153.880000
457.179413	152.980000
457.273102	153.820000
457.366791	154.140000
457.460480	154.460000
457.554199	155.340000
457.647888	155.780000
457.741577	155.240000
457.835266	155.480000
457.928955	155.500000
458.022644	155.460000
458.116364	155.400000
458.210052	155.220000
458.303741	155.340000
458.397461	154.500000
458.491119	153.620000
458.584839	153.700000
458.678528	153.480000
458.772247	152.680000
458.865906	153.400000
458.959625	154.480000
459.053284	154.120000
459.147003	154.020000
459.240692	155.120000
459.334412	154.800000
459.428070	154.020000
459.521790	154.280000
459.615479	154.520000
459.709198	154.520000
459.802887	154.020000
459.896576	153.740000
459.990265	153.820000
460.083954	153.900000
460.177673	153.160000
460.271362	153.620000
460.365051	153.360000
460.458740	152.760000
460.552429	152.300000
460.646149	152.520000
460.739838	152.260000
460.833527	152.840000
460.927246	153.220000
461.020905	153.200000
461.114655	153.160000
461.208313	153.300000
461.302032	152.560000
461.395691	152.580000
461.489441	152.680000
461.583099	152.580000
461.676819	152.520000
461.770477	153.420000
461.864197	152.940000
461.957916	152.780000
462.051605	152.500000
462.145294	153.320000
462.238983	152.700000
462.332703	153.420000
462.426392	154.260000
462.520081	154.180000
462.613770	153.640000
462.707489	154.080000
462.801178	154.060000
462.894867	153.480000
462.988556	153.780000
463.082275	153.780000
463.175964	153.540000
463.269684	153.580000
463.363342	153.620000
463.457092	153.200000
463.550751	153.500000
463.644470	153.720000
463.738129	153.500000
463.831879	154.140000
463.925537	154.960000
464.019257	154.900000
464.112946	154.840000
464.206665	154.600000
464.300323	153.840000
464.394043	153.320000
464.487762	153.060000
464.581451	153.180000
464.675140	153.180000
464.768829	153.720000
464.862549	153.920000
464.956238	154.200000
465.049927	154.340000
465.143646	154.700000
465.237335	154.120000
465.331024	154.760000
465.424713	154.660000
465.518433	154.600000
465.612152	154.280000
465.705811	154.600000
465.799561	154.340000
465.893219	154.080000
465.986938	154.160000
466.080597	154.100000
466.174347	154.280000
466.268005	154.240000
466.361725	154.340000
466.455414	154.220000
466.549133	153.960000
466.642792	153.940000
466.736542	153.360000
466.830231	153.540000
466.923920	153.120000
467.017609	153.160000
467.111328	152.680000
467.205017	152.800000
467.298706	152.640000
467.392426	152.820000
467.486115	153.400000
467.579803	153.240000
467.673523	153.680000
467.767212	154.120000
467.860901	154.240000
467.954651	154.200000
468.048309	154.880000
468.142029	154.680000
468.235718	154.240000
468.329437	154.060000
468.423096	154.140000
468.516846	153.740000
468.610504	153.040000
468.704224	152.780000
468.797913	152.720000
468.891632	152.600000
468.985291	152.740000
469.079010	153.360000
469.172729	152.980000
469.266418	153.660000
469.360107	153.640000
469.453827	153.500000
469.547516	153.520000
469.641205	154.160000
469.734924	154.120000
469.828613	154.660000
469.922302	154.680000
470.016022	154.720000
470.109711	154.740000
470.203430	153.940000
470.297150	152.820000
470.390808	153.060000
470.484558	152.780000
470.578217	153.020000
470.671936	153.680000
470.765625	154.580000
470.859344	154.220000
470.953003	154.840000
471.046753	154.400000
471.140411	153.760000
471.234131	153.720000
471.327820	154.500000
471.421539	153.900000
471.515228	153.840000
471.608948	154.100000
471.702637	153.680000
471.796326	153.080000
471.890045	153.620000
471.983734	153.680000
472.077423	153.380000
472.171143	153.740000
472.264832	153.540000
472.358521	152.960000
472.452240	152.900000
472.545929	153.660000
472.639648	153.560000
472.733337	154.240000
472.827057	154.400000
472.920746	154.600000
473.014465	154.620000
473.108124	154.640000
473.201874	154.480000
473.295532	154.460000
473.389252	154.800000
473.482941	154.780000
473.576660	154.320000
473.670319	153.940000
473.764069	154.380000
473.857727	154.020000
473.951477	153.900000
474.045166	154.640000
474.138855	154.600000
474.232574	154.160000
474.326263	154.240000
474.419952	154.400000
474.513672	154.120000
474.607361	154.000000
474.701050	154.260000
474.794769	154.700000
474.888458	154.860000
474.982178	155.100000
475.075867	155.400000
475.169586	155.380000
475.263275	155.040000
475.356995	154.660000
475.450653	153.920000
475.544403	153.400000
475.638062	154.180000
475.731812	153.800000
475.825470	153.500000
475.919189	153.760000
476.012878	154.280000
476.106598	153.360000
476.200256	153.760000
476.294006	154.140000
476.387695	154.180000
476.481384	154.080000
476.575104	154.160000
476.668793	153.900000
476.762512	153.520000
476.856201	154.220000
476.949890	153.960000
477.043610	153.600000
477.137299	153.760000
477.230988	154.100000
477.324707	153.420000
477.418396	154.400000
477.512146	154.500000
477.605804	154.300000
477.699524	154.460000
477.793213	154.280000
477.886932	153.520000
477.980591	153.640000
478.074341	153.480000
478.167999	152.820000
478.261749	153.280000
478.355408	153.160000
478.449127	153.580000
478.542816	154.760000
478.636536	155.720000
478.730225	155.700000
478.823944	156.060000
478.917633	155.920000
479.011322	155.320000
479.105042	155.060000
479.198730	155.300000
479.292450	155.140000
479.386139	155.160000
479.479828	155.180000
479.573547	155.260000
479.667267	154.740000
479.760925	154.660000
479.854675	154.860000
479.948334	155.060000
480.042084	154.260000
480.135742	154.380000
480.229462	153.900000
480.323151	153.660000
480.416870	152.520000
480.510529	152.880000
480.604279	152.640000
480.697937	153.520000
480.791656	152.880000
480.885345	153.300000
480.979065	153.380000
481.072754	153.900000
481.166473	154.120000
481.260132	154.540000
481.353882	154.500000
481.447540	154.380000
481.541260	154.380000
481.635010	153.700000
481.728668	153.440000
481.822388	153.560000
481.916077	153.700000
482.009796	153.600000
482.103485	154.000000
482.197205	154.420000
482.290863	154.700000
482.384613	154.320000
482.478271	154.060000
482.571991	153.960000
482.665680	154.000000
482.759399	154.380000
482.853058	154.940000
482.946808	154.880000
483.040466	154.600000
483.134216	154.420000
483.227875	153.560000
483.321594	153.660000
483.415283	153.580000
483.509003	153.240000
483.602661	152.900000
483.696411	153.400000
483.790070	153.240000
483.883789	153.420000
483.977478	154.240000
484.071198	154.320000
484.164917	153.960000
484.258606	153.440000
484.352325	153.720000
484.445984	153.700000
484.539734	153.760000
484.633392	153.360000
484.727142	153.940000
484.820801	153.440000
484.914520	153.300000
485.008209	153.660000
485.101929	154.620000
485.195587	154.320000
485.289337	154.560000
485.382996	154.400000
485.476715	154.180000
485.570404	154.320000
485.664124	154.220000
485.757782	154.620000
485.851532	154.440000
485.945190	154.460000
486.038910	153.900000
486.132599	154.380000
486.226318	153.820000
486.319977	153.920000
486.413727	154.260000
486.507446	154.060000
486.601105	153.520000
486.694855	153.520000
486.788513	153.360000
486.882233	153.140000
486.975922	153.180000
487.069641	153.200000
487.163300	152.860000
487.257050	154.020000
487.350708	153.720000
487.444427	153.560000
487.538116	153.620000
487.631836	153.860000
487.725494	153.160000
487.819214	153.520000
487.912903	153.540000
488.006622	153.740000
488.100281	154.100000
488.194031	153.920000
488.287689	153.960000
488.381409	154.880000
488.475098	154.680000
488.568817	154.720000
488.662476	154.400000
488.756226	153.880000
488.849945	152.800000
488.943604	153.140000
489.037354	153.140000
489.131012	153.160000
489.224731	153.080000
489.318390	153.340000
489.412140	153.140000
489.505798	152.980000
489.599518	152.960000
489.693207	153.700000
489.786926	153.760000
489.880585	153.660000
489.974335	153.900000
490.067993	155.160000
490.161713	155.060000
490.255371	155.780000
490.349121	155.840000
490.442780	155.280000
490.536499	153.940000
490.630188	153.920000
490.723907	153.000000
490.817566	153.480000
490.911285	153.960000
491.004974	153.920000
491.098694	153.380000
491.192413	154.300000
491.286102	153.720000
491.379822	153.520000
491.473480	153.960000
491.567200	154.160000
491.660889	153.380000
491.754608	153.320000
491.848267	153.200000
491.941986	153.120000
492.035675	153.240000
492.129395	153.900000
492.223053	153.760000
492.316772	153.880000
492.410461	153.620000
492.504181	153.600000
492.597839	153.140000
492.691559	153.400000
492.785248	153.460000
492.878967	153.800000
492.972626	153.680000
493.066345	153.560000
493.160034	153.080000
493.253754	153.020000
493.347412	152.640000
493.441132	152.920000
493.534882	153.440000
493.628540	154.100000
493.722260	154.240000
493.815918	154.660000
493.909668	154.680000
494.003326	154.920000
494.097046	154.840000
494.190704	154.600000
494.284454	154.640000
494.378113	154.640000
494.471832	154.220000
494.565491	153.760000
494.659210	153.860000
494.752899	153.780000
494.846619	153.600000
494.940277	153.780000
495.033997	153.920000
495.127686	153.660000
495.221405	153.700000
495.315063	153.940000
495.408783	153.840000
495.502441	154.240000
495.596191	154.440000
495.689850	154.040000
495.783569	154.260000
495.877228	154.280000
495.970947	154.040000
496.064697	154.160000
496.158356	155.220000
496.252075	154.940000
496.345734	154.840000
496.439453	155.380000
496.533142	155.540000
496.626862	155.360000
496.720520	155.320000
496.814240	154.960000
496.907898	154.580000
497.001617	154.520000
497.095306	153.500000
497.189026	153.320000
497.282684	153.720000
497.376404	154.020000
497.470062	153.660000
497.563782	154.100000
497.657471	154.180000
497.751190	153.900000
497.844849	153.680000
497.938568	154.100000
498.032227	154.080000
498.125946	154.340000
498.219635	154.220000
498.313354	154.560000
498.407074	154.080000
498.500732	154.440000
498.594452	154.300000
498.688110	154.120000
498.781830	153.540000
498.875519	153.740000
498.969238	153.340000
499.062897	153.180000
499.156616	153.960000
499.250275	153.840000
499.343994	153.440000
499.437653	153.540000
499.531372	153.500000
499.625061	153.620000
499.718781	154.420000
499.812439	155.040000
499.906158	155.040000
499.999817	154.940000
500.093536	154.440000
500.187195	154.160000
500.280914	154.080000
500.374573	154.200000
500.468323	154.140000
500.561981	154.520000
500.655701	153.800000
500.749420	153.600000
500.843079	153.760000
500.936798	154.180000
501.030457	154.280000
501.124176	154.960000
501.217834	154.980000
501.311554	154.940000
501.405212	154.340000
501.498962	153.300000
501.592621	152.720000
501.686340	153.140000
501.779999	153.060000
501.873718	153.600000
501.967377	154.360000
502.061096	154.880000
502.154755	154.020000
502.248474	154.180000
502.342133	154.280000
502.435852	154.140000
502.529510	155.080000
502.623230	156.140000
502.716888	155.500000
502.810608	155.260000
502.904266	155.400000
502.997986	154.340000
503.091705	153.860000
503.185364	154.060000
503.279083	154.040000
503.372772	153.860000
503.466492	153.420000
503.560150	153.460000
503.653870	153.740000
503.747528	153.700000
503.841248	153.860000
503.934906	154.360000
504.028625	154.060000
504.122284	154.140000
504.216003	155.180000
504.309662	154.640000
504.403381	155.000000
504.497040	155.140000
504.590759	154.760000
504.684418	154.480000
504.778137	155.180000
504.871796	154.980000
504.965515	154.720000
505.059174	154.620000
505.152893	153.760000
505.246521	153.120000
505.340240	152.880000
505.433899	153.040000
505.527618	153.560000
505.621338	154.180000
505.714996	154.240000
505.808716	154.140000
505.902374	154.400000
505.996094	154.100000
506.089752	153.580000
506.183472	153.860000
506.277130	153.940000
506.370850	154.140000
506.464508	153.800000
506.558228	153.880000
506.651886	153.380000
506.745605	153.300000
506.839264	153.100000
506.932983	153.460000
507.026611	153.240000
507.120331	153.960000
507.213989	153.520000
507.307709	153.200000
507.401367	153.500000
507.495087	154.440000
507.588745	153.920000
507.682465	155.020000
507.776123	155.200000
507.869843	154.680000
507.963531	154.200000
508.057190	154.660000
508.150909	153.700000
508.244568	153.980000
508.338287	154.160000
508.431946	153.820000
508.525665	153.480000
508.619324	153.760000
508.713013	153.960000
508.806671	154.340000
508.900391	155.260000
508.994049	155.580000
509.087769	155.260000
509.181427	155.020000
509.275146	154.420000
509.368774	153.600000
509.462494	153.620000
509.556152	153.600000
509.649872	153.740000
509.743530	154.020000
509.837250	154.260000
509.930878	154.100000
510.024597	154.500000
510.118256	154.420000
510.211975	154.420000
510.305695	153.900000
510.399353	154.240000
510.493042	154.380000
510.586700	154.380000
510.680420	154.940000
510.774078	155.280000
510.867798	155.140000
510.961426	154.460000
511.055145	154.320000
511.148804	153.500000
511.242523	153.880000
511.336151	153.700000
511.429871	154.420000
511.523529	154.300000
511.617249	154.340000
511.710876	154.140000
511.804596	153.820000
511.898254	153.800000
511.991974	154.340000
512.085632	154.380000
512.179321	154.700000
512.272949	155.220000
512.366699	155.240000
512.460327	154.740000
512.554077	155.520000
512.647766	155.060000
512.741394	154.840000
512.835144	155.220000
512.928772	154.940000
513.022461	154.720000
513.116150	154.600000
513.209839	155.000000
513.303467	154.480000
513.397217	154.120000
513.490845	153.760000
513.584595	153.420000
513.678223	152.860000
513.771912	152.160000
513.865601	153.000000
513.959290	152.900000
514.052917	153.180000
514.146667	153.980000
514.240295	154.860000
514.333984	154.960000
514.427673	154.560000
514.521362	155.060000
514.614990	154.180000
514.708740	154.080000
514.802368	154.000000
514.896057	154.520000
514.989746	155.000000
515.083435	155.260000
515.177124	155.520000
515.270752	155.220000
515.364502	155.080000
515.458130	154.680000
515.551819	154.120000
515.645508	153.780000
515.739197	153.940000
515.832825	153.940000
515.926575	153.520000
516.020203	154.220000
516.113892	154.800000
516.207520	154.620000
516.301270	154.740000
516.394897	154.960000
516.488586	155.020000
516.582275	154.760000
516.675964	154.200000
516.769592	154.060000
516.863281	154.500000
516.956970	154.720000
517.050659	154.560000
517.144287	155.360000
517.238037	155.540000
517.331665	154.900000
517.425354	154.540000
517.519043	154.420000
517.612732	154.400000
517.706421	154.100000
517.800049	153.960000
517.893738	153.780000
517.987427	153.600000
518.081116	153.460000
518.174744	153.360000
518.268433	153.900000
518.362122	154.600000
518.455811	154.840000
518.549438	155.500000
518.643127	156.480000
518.736816	155.860000
518.830505	155.020000
518.924133	154.760000
519.017822	154.520000
519.111511	153.960000
519.205200	154.720000
519.298828	154.800000
519.392517	154.580000
519.486206	154.700000
519.579895	154.920000
519.673523	154.200000
519.767212	154.460000
519.860901	155.120000
519.954590	154.720000
520.048279	154.320000
520.141907	154.600000
520.235596	155.480000
520.329224	155.520000
520.422974	155.540000
520.516602	155.240000
520.610291	154.660000
520.703918	154.180000
520.797607	153.700000
520.891296	153.560000
520.984985	153.980000
521.078613	155.180000
521.172302	154.480000
521.265930	155.500000
521.359680	155.960000
521.453308	156.080000
521.546997	155.520000
521.640625	155.820000
521.734314	154.840000
521.827942	154.620000
521.921692	154.780000
522.015320	154.680000
522.109009	154.540000
522.202698	154.680000
522.296326	154.880000
522.390015	155.000000
522.483704	155.160000
522.577393	154.940000
522.671021	154.860000
522.764709	154.460000
522.858337	154.740000
522.952026	154.640000
523.045654	155.380000
523.139404	155.960000
523.233032	156.040000
523.326721	155.180000
523.420349	155.080000
523.514038	154.260000
523.607666	154.480000
523.701355	154.000000
523.795044	154.160000
523.888733	154.160000
523.982361	154.720000
524.076050	154.240000
524.169678	154.820000
524.263367	154.420000
524.356995	154.360000
524.450684	154.220000
524.544373	153.800000
524.638062	153.880000
524.731750	154.240000
524.825378	154.180000
524.919067	153.780000
525.012695	154.120000
525.106384	153.680000
525.200012	153.820000
525.293701	153.680000
525.387329	154.220000
525.481018	154.120000
525.574646	154.420000
525.668396	154.320000
525.762024	154.940000
525.855713	154.880000
525.949341	154.460000
526.043030	154.420000
526.136658	154.200000
526.230347	153.700000
526.323975	153.240000
526.417664	153.400000
526.511292	153.580000
526.604980	153.640000
526.698608	153.580000
526.792297	153.840000
526.885925	153.880000
526.979614	153.660000
527.073303	153.900000
527.166931	154.100000
527.260620	154.300000
527.354309	154.680000
527.447998	154.660000
527.541626	154.360000
527.635315	154.320000
527.728943	154.460000
527.822632	154.700000
527.916260	154.560000
528.009949	154.920000
528.103577	154.620000
528.197266	153.800000
528.290894	153.680000
528.384583	153.660000
528.478210	153.400000
528.571899	154.020000
528.665527	154.840000
528.759216	154.880000
528.852844	155.460000
528.946533	155.540000
529.040161	155.080000
529.133850	154.560000
529.227478	154.760000
529.321167	154.960000
529.414856	155.440000
529.508484	156.140000
529.602173	156.220000
529.695801	155.780000
529.789490	155.360000
529.883057	154.800000
529.976746	154.700000
530.070374	155.100000
530.164062	155.080000
530.257690	155.260000
530.351379	155.380000
530.445007	154.860000
530.538696	154.440000
530.632324	154.740000
530.726013	154.420000
530.819641	154.440000
530.913330	154.640000
531.006958	154.640000
531.100647	154.580000
531.194275	154.480000
531.287964	154.200000
531.381592	153.980000
531.475220	154.240000
531.568848	153.820000
531.662537	153.780000
531.756226	154.460000
531.849854	154.460000
531.943542	154.300000
532.037170	154.020000
532.130859	154.300000
532.224487	153.720000
532.318176	153.500000
532.411804	153.900000
532.505432	154.240000
532.599060	154.120000
532.692749	154.220000
532.786377	154.980000
532.880066	154.280000
532.973694	153.760000
533.067383	153.720000
533.161011	153.600000
533.254639	153.280000
533.348267	153.440000
533.441956	154.060000
533.535583	153.680000
533.629272	153.940000
533.722900	153.400000
533.816589	153.380000
533.910156	153.760000
534.003845	153.780000
534.097534	154.060000
534.191162	155.080000
534.284851	155.340000
534.378479	154.700000
534.472107	155.000000
534.565735	154.780000
534.659424	154.920000
534.753052	154.740000
534.846741	154.580000
534.940369	155.120000
535.033997	154.880000
535.127625	154.240000
535.221313	154.820000
535.314941	155.200000
535.408630	154.520000
535.502197	154.700000
535.595886	154.460000
535.689514	153.880000
535.783203	153.920000
535.876831	154.440000
535.970459	154.480000
536.064087	154.200000
536.157776	154.260000
536.251404	154.400000
536.345093	154.100000
536.438721	154.220000
536.532349	154.700000
536.626038	154.620000
536.719666	154.680000
536.813293	154.480000
536.906921	154.020000
537.000610	154.220000
537.094238	154.180000
537.187866	154.160000
537.281494	154.360000
537.375183	154.640000
537.468811	154.260000
537.562439	154.500000
537.656067	154.240000
537.749756	154.140000
537.843384	154.740000
537.937012	155.180000
538.030640	155.000000
538.124329	155.040000
538.217896	155.540000
538.311584	155.280000
538.405212	155.160000
538.498901	155.620000
538.592468	156.280000
538.686157	155.540000
538.779785	154.720000
538.873413	154.140000
538.967102	153.640000
539.060730	152.820000
539.154358	153.040000
539.247986	153.640000
539.341675	154.180000
539.435242	154.100000
539.528931	154.460000
539.622559	154.140000
539.716187	154.660000
539.809814	154.520000
539.903503	154.660000
539.997070	154.340000
540.090759	154.500000
540.184387	153.820000
540.278015	154.400000
540.371643	154.560000
540.465332	154.740000
540.558899	154.780000
540.652588	154.940000
540.746216	154.520000
540.839844	154.780000
540.933472	154.780000
541.027100	154.620000
541.120728	154.840000
541.214417	154.700000
541.308044	154.760000
541.401672	154.340000
541.495300	154.300000
541.588928	154.160000
541.682617	154.060000
541.776184	153.700000
541.869873	154.300000
541.963440	154.720000
542.057129	154.320000
542.150757	154.240000
542.244385	153.720000
542.338013	152.980000
542.431641	152.740000
542.525269	152.980000
542.618958	153.760000
542.712524	154.320000
542.806213	154.600000
542.899780	154.740000
542.993469	154.340000
543.087036	153.580000
543.180725	153.340000
543.274292	153.700000
543.367981	153.860000
543.461548	154.460000
543.555237	154.660000
543.648926	155.120000
543.742493	155.860000
543.836182	155.820000
543.929749	155.480000
544.023437	155.520000
544.117004	155.300000
544.210693	154.860000
544.304260	154.760000
544.397949	154.640000
544.491516	154.900000
544.585205	154.820000
544.678772	154.040000
544.772461	154.780000
544.866028	155.040000
544.959717	154.720000
545.053284	154.520000
545.146973	155.200000
545.240540	154.560000
545.334229	155.000000
545.427795	155.420000
545.521423	155.580000
545.615051	155.260000
545.708679	155.860000
545.802307	155.460000
545.895935	155.600000
545.989624	156.580000
546.083191	156.580000
546.176880	156.140000
546.270447	155.540000
546.364136	155.820000
546.457703	154.780000
546.551331	154.820000
546.644958	155.080000
546.738586	155.640000
546.832214	154.800000
546.925842	154.860000
547.019409	154.980000
547.113098	154.420000
547.206665	154.020000
547.300354	154.300000
547.393921	154.720000
547.487549	154.900000
547.581177	154.620000
547.674805	154.700000
547.768433	153.820000
547.862061	153.720000
547.955627	153.000000
548.049316	153.800000
548.142883	154.300000
548.236572	155.100000
548.330139	155.240000
548.423767	155.260000
548.517456	154.760000
548.611023	154.780000
548.704651	153.960000
548.798279	153.700000
548.891907	154.280000
548.985474	154.420000
549.079163	154.380000
549.172729	154.600000
549.266357	153.960000
549.359985	154.060000
549.453613	153.480000
549.547180	153.160000
549.640869	153.600000
549.734436	153.760000
549.828064	153.960000
549.921631	154.180000
550.015320	153.940000
550.108887	154.180000
550.202515	154.620000
550.296143	153.720000
550.389771	153.920000
550.483337	154.220000
550.576965	154.100000
550.670593	154.100000
550.764221	154.380000
550.857849	154.480000
550.951477	154.100000
551.045105	153.760000
551.138672	153.580000
551.232300	153.280000
551.325928	153.360000
551.419556	153.940000
551.513123	154.020000
551.606750	153.980000
551.700378	154.420000
551.794006	154.520000
551.887573	154.260000
551.981201	154.480000
552.074768	154.420000
552.168457	154.060000
552.262024	154.720000
552.355652	154.700000
552.449219	155.220000
552.542847	155.460000
552.636475	155.240000
552.730103	154.140000
552.823669	153.960000
552.917297	153.180000
553.010864	152.920000
553.104553	153.660000
553.198181	153.220000
553.291748	153.820000
553.385376	154.220000
553.478943	154.260000
553.572571	153.960000
553.666199	154.680000
553.759827	154.220000
553.853394	153.340000
553.947021	153.380000
554.040588	153.520000
554.134216	153.520000
554.227783	154.140000
554.321411	155.220000
554.415039	154.700000
554.508667	154.720000
554.602234	154.940000
554.695862	154.200000
554.789429	153.700000
554.883057	154.160000
554.976624	153.940000
555.070251	153.840000
555.163818	153.940000
555.257507	154.260000
555.351074	154.540000
555.444702	155.480000
555.538330	155.240000
555.631897	155.340000
555.725525	155.000000
555.819092	154.640000
555.912720	153.400000
556.006287	153.720000
556.099915	153.660000
556.193481	153.840000
556.287109	154.260000
556.380676	154.560000
556.474304	154.580000
556.567871	155.120000
556.661499	154.660000
556.755066	154.480000
556.848694	154.640000
556.942261	154.240000
557.035889	153.880000
557.129517	154.240000
557.223145	154.540000
557.316711	154.300000
557.410339	154.380000
557.503906	154.220000
557.597473	154.320000
557.691040	153.840000
557.784668	153.980000
557.878296	153.960000
557.971863	154.260000
558.065491	154.380000
558.159058	154.300000
558.252686	155.060000
558.346252	155.880000
558.439880	154.920000
558.533447	154.400000
558.627075	154.160000
558.720642	153.420000
558.814270	152.780000
558.907837	153.340000
559.001465	153.340000
559.095032	154.120000
559.188660	154.480000
559.282227	154.000000
559.375854	154.640000
559.469360	154.800000
559.562988	155.180000
559.656555	155.000000
559.750183	155.440000
559.843750	155.220000
559.937378	155.200000
560.030945	154.720000
560.124573	0.000000
560.218140	0.000000
560.311707	0.000000
560.405334	0.000000
560.498901	0.000000
560.592529	0.000000
560.686096	0.000000
560.779724	0.000000
560.873291	0.000000
560.966858	0.000000
561.060425	0.000000
561.154053	0.000000
561.247620	0.000000
561.341248	0.000000
561.434814	0.000000
561.528381	0.000000
561.621948	0.000000
561.715576	0.000000
561.809143	0.000000
561.902771	0.000000
561.996277	0.000000
562.089905	0.000000
562.183472	0.000000
562.277100	0.000000
