Model Number: SPM-002-B   
Serial Number: 70087108
Firmware Version: 004.15.4
Exposure Time: 100000.000000us
Data Taken on: 15-01-2021 17:50:37.532
Wavelength	Amplitude
221.570786	0.000000
221.663406	0.000000
221.756027	0.000000
221.848648	0.000000
221.941269	0.000000
222.033905	0.000000
222.126526	0.000000
222.219162	0.000000
222.311798	0.000000
222.404419	0.000000
222.497055	0.000000
222.589676	0.000000
222.682312	0.000000
222.774933	0.000000
222.867569	0.000000
222.960205	0.000000
223.052841	0.000000
223.145462	0.000000
223.238098	0.000000
223.330734	0.000000
223.423386	0.000000
223.516022	0.000000
223.608658	0.000000
223.701309	0.000000
223.793945	0.000000
223.886581	0.000000
223.979218	0.000000
224.071869	0.000000
224.164505	0.000000
224.257156	0.000000
224.349792	0.000000
224.442444	0.000000
224.535095	0.000000
224.627747	0.000000
224.720398	0.000000
224.813034	0.000000
224.905685	0.000000
224.998337	154.500000
225.090988	154.160000
225.183640	153.960000
225.276291	153.620000
225.368942	153.840000
225.461594	154.560000
225.554245	154.760000
225.646912	154.540000
225.739578	154.960000
225.832230	155.340000
225.924896	154.400000
226.017548	154.760000
226.110199	155.400000
226.202866	154.700000
226.295532	154.380000
226.388184	154.540000
226.480850	154.100000
226.573517	153.840000
226.666168	154.180000
226.758835	154.580000
226.851501	155.280000
226.944183	155.480000
227.036850	155.020000
227.129517	155.220000
227.222183	155.180000
227.314850	154.760000
227.407516	154.760000
227.500198	155.920000
227.592865	155.480000
227.685532	154.960000
227.778214	155.000000
227.870880	155.260000
227.963562	155.620000
228.056229	156.300000
228.148926	156.900000
228.241592	157.760000
228.334274	157.400000
228.426956	156.400000
228.519638	156.180000
228.612305	155.420000
228.704987	155.000000
228.797668	155.140000
228.890350	154.700000
228.983032	154.220000
229.075714	154.820000
229.168396	154.300000
229.261108	153.720000
229.353790	154.180000
229.446472	154.680000
229.539169	154.680000
229.631851	154.700000
229.724533	155.200000
229.817230	155.240000
229.909912	155.980000
230.002609	155.780000
230.095306	155.720000
230.187988	155.640000
230.280685	155.240000
230.373383	154.080000
230.466095	153.820000
230.558792	154.020000
230.651474	153.840000
230.744171	153.900000
230.836868	153.880000
230.929581	154.380000
231.022278	154.600000
231.114975	155.100000
231.207672	155.040000
231.300369	155.500000
231.393082	155.520000
231.485779	155.120000
231.578506	154.840000
231.671204	155.040000
231.763916	154.840000
231.856613	154.480000
231.949326	154.580000
232.042023	154.580000
232.134735	154.580000
232.227448	154.260000
232.320160	154.800000
232.412872	154.900000
232.505585	155.860000
232.598297	156.340000
232.691010	156.220000
232.783722	155.500000
232.876450	155.720000
232.969162	154.580000
233.061874	154.220000
233.154587	154.080000
233.247314	154.500000
233.340027	154.080000
233.432739	154.820000
233.525467	154.660000
233.618179	155.080000
233.710907	154.920000
233.803635	155.300000
233.896347	154.900000
233.989090	155.620000
234.081818	155.480000
234.174545	155.400000
234.267258	155.080000
234.359985	155.100000
234.452713	154.660000
234.545441	154.820000
234.638168	154.940000
234.730896	155.500000
234.823639	155.200000
234.916367	155.440000
235.009094	155.440000
235.101822	155.360000
235.194580	155.100000
235.287308	155.360000
235.380051	154.820000
235.472778	155.280000
235.565521	155.600000
235.658249	155.220000
235.750992	155.300000
235.843719	155.160000
235.936462	155.080000
236.029205	154.520000
236.121948	154.240000
236.214691	154.660000
236.307449	155.580000
236.400192	155.300000
236.492935	155.380000
236.585678	155.940000
236.678421	155.480000
236.771164	154.900000
236.863907	155.220000
236.956665	155.480000
237.049408	157.240000
237.142151	156.900000
237.234909	157.520000
237.327652	157.400000
237.420410	157.220000
237.513153	155.620000
237.605927	155.860000
237.698669	155.400000
237.791428	154.640000
237.884186	155.000000
237.976944	154.400000
238.069702	154.440000
238.162445	153.860000
238.255203	154.200000
238.347961	154.500000
238.440720	154.880000
238.533478	154.880000
238.626266	154.500000
238.719025	154.860000
238.811783	154.460000
238.904541	154.400000
238.997314	154.020000
239.090073	154.080000
239.182831	154.520000
239.275604	155.040000
239.368362	154.980000
239.461136	155.540000
239.553909	156.040000
239.646667	155.400000
239.739441	154.900000
239.832214	155.200000
239.925003	155.060000
240.017761	155.560000
240.110535	156.340000
240.203308	155.940000
240.296082	155.960000
240.388855	155.840000
240.481628	155.880000
240.574417	155.540000
240.667191	155.620000
240.759964	155.260000
240.852737	154.900000
240.945526	154.280000
241.038315	154.020000
241.131088	154.160000
241.223877	154.320000
241.316650	154.140000
241.409439	154.560000
241.502228	154.440000
241.595001	154.820000
241.687790	154.800000
241.780579	155.200000
241.873367	155.200000
241.966141	155.160000
242.058929	154.820000
242.151718	154.780000
242.244507	155.020000
242.337311	154.340000
242.430099	155.120000
242.522903	155.140000
242.615692	154.980000
242.708481	155.000000
242.801270	155.720000
242.894073	155.160000
242.986862	155.340000
243.079651	156.200000
243.172455	155.860000
243.265244	155.900000
243.358063	155.560000
243.450867	155.760000
243.543655	155.320000
243.636459	155.480000
243.729263	155.580000
243.822067	155.740000
243.914856	155.940000
244.007660	155.540000
244.100464	155.440000
244.193268	154.920000
244.286072	154.880000
244.378876	154.040000
244.471680	154.060000
244.564499	154.460000
244.657318	155.560000
244.750122	155.680000
244.842926	155.620000
244.935745	156.280000
245.028549	155.720000
245.121368	154.580000
245.214172	154.780000
245.306992	154.980000
245.399796	154.280000
245.492615	154.480000
245.585434	154.320000
245.678253	154.200000
245.771072	154.320000
245.863892	154.580000
245.956711	154.760000
246.049530	154.860000
246.142349	154.460000
246.235168	154.520000
246.327988	154.780000
246.420807	154.440000
246.513626	154.580000
246.606445	154.340000
246.699280	154.560000
246.792099	154.120000
246.884918	154.020000
246.977753	153.700000
247.070587	153.960000
247.163422	153.620000
247.256241	153.940000
247.349075	154.320000
247.441895	154.680000
247.534729	154.740000
247.627563	154.760000
247.720383	155.160000
247.813217	155.020000
247.906052	154.860000
247.998886	155.120000
248.091736	154.920000
248.184570	154.260000
248.277405	154.340000
248.370239	155.460000
248.463074	156.280000
248.555908	156.500000
248.648743	156.640000
248.741592	156.940000
248.834427	155.780000
248.927261	154.420000
249.020111	154.900000
249.112946	155.680000
249.205795	155.020000
249.298630	155.340000
249.391495	155.360000
249.484344	154.980000
249.577179	154.400000
249.670029	154.700000
249.762878	155.420000
249.855728	155.880000
249.948563	156.020000
250.041412	155.420000
250.134262	155.680000
250.227112	155.240000
250.319962	155.420000
250.412827	155.240000
250.505692	155.140000
250.598541	154.860000
250.691391	154.400000
250.784241	154.140000
250.877106	154.260000
250.969955	154.340000
251.062805	154.980000
251.155670	155.640000
251.248520	155.400000
251.341385	155.680000
251.434235	155.800000
251.527100	155.160000
251.619965	154.460000
251.712814	155.420000
251.805695	155.140000
251.898560	155.280000
251.991425	155.920000
252.084290	156.280000
252.177155	155.280000
252.270020	155.220000
252.362885	155.220000
252.455750	154.820000
252.548615	154.500000
252.641479	154.760000
252.734360	154.500000
252.827240	154.160000
252.920105	154.320000
253.012970	154.400000
253.105850	154.180000
253.198715	153.960000
253.291595	154.180000
253.384460	153.540000
253.477341	153.660000
253.570221	154.040000
253.663086	154.060000
253.755966	154.600000
253.848846	155.000000
253.941727	155.160000
254.034592	154.840000
254.127472	154.500000
254.220367	154.400000
254.313248	154.260000
254.406128	153.880000
254.499008	154.360000
254.591904	155.560000
254.684784	155.800000
254.777664	155.940000
254.870544	155.720000
254.963440	155.480000
255.056335	154.880000
255.149216	154.560000
255.242111	154.940000
255.334991	155.360000
255.427887	155.180000
255.520767	155.360000
255.613663	155.540000
255.706558	154.840000
255.799438	154.400000
255.892334	154.500000
255.985229	154.760000
256.078125	154.580000
256.171021	154.820000
256.263916	155.560000
256.356812	155.840000
256.449707	155.700000
256.542603	155.280000
256.635498	155.540000
256.728394	155.140000
256.821289	154.700000
256.914215	154.940000
257.007080	155.320000
257.100006	155.300000
257.192932	155.760000
257.285828	156.180000
257.378723	155.600000
257.471619	155.320000
257.564545	154.840000
257.657440	154.900000
257.750336	155.120000
257.843262	154.840000
257.936157	156.080000
258.029053	156.820000
258.121979	156.640000
258.214874	156.060000
258.307800	156.240000
258.400696	155.040000
258.493622	154.500000
258.586517	153.360000
258.679443	153.900000
258.772339	153.560000
258.865265	153.340000
258.958160	153.020000
259.051086	154.760000
259.144012	154.440000
259.236938	155.380000
259.329834	155.580000
259.422791	155.620000
259.515717	154.280000
259.608612	154.040000
259.701538	153.720000
259.794464	153.860000
259.887390	154.040000
259.980316	154.320000
260.073212	154.460000
260.166138	153.680000
260.259064	153.900000
260.351990	154.280000
260.444916	154.280000
260.537842	154.340000
260.630768	155.460000
260.723694	155.420000
260.816620	155.480000
260.909546	155.580000
261.002472	155.340000
261.095398	154.500000
261.188354	154.220000
261.281281	153.560000
261.374207	153.860000
261.467133	154.580000
261.560089	154.900000
261.653015	154.720000
261.745972	155.460000
261.838867	155.600000
261.931824	155.920000
262.024780	155.680000
262.117706	156.180000
262.210663	156.160000
262.303589	155.820000
262.396515	155.420000
262.489471	156.380000
262.582397	156.260000
262.675354	155.720000
262.768280	155.800000
262.861237	155.660000
262.954163	155.340000
263.047119	155.300000
263.140045	155.100000
263.233002	155.080000
263.325958	154.980000
263.418884	154.320000
263.511841	154.220000
263.604797	154.440000
263.697723	154.480000
263.790680	154.180000
263.883636	155.000000
263.976593	154.940000
264.069550	155.100000
264.162476	154.660000
264.255463	154.880000
264.348419	154.240000
264.441376	154.580000
264.534332	154.080000
264.627289	154.620000
264.720245	155.060000
264.813202	154.820000
264.906158	154.920000
264.999115	155.680000
265.092072	155.360000
265.185028	155.780000
265.277985	156.240000
265.370941	156.020000
265.463898	155.500000
265.556854	155.220000
265.649811	154.020000
265.742798	153.860000
265.835754	153.980000
265.928711	154.600000
266.021667	154.960000
266.114655	155.580000
266.207611	156.000000
266.300568	155.300000
266.393585	154.620000
266.486511	154.760000
266.579498	153.920000
266.672485	153.660000
266.765442	154.020000
266.858429	154.820000
266.951385	154.300000
267.044342	154.900000
267.137329	154.860000
267.230316	154.960000
267.323273	154.340000
267.416260	154.900000
267.509216	154.480000
267.602203	154.460000
267.695160	154.880000
267.788147	154.900000
267.881134	154.380000
267.974091	154.700000
268.067078	154.480000
268.160065	154.100000
268.253052	154.220000
268.346008	154.260000
268.438995	153.960000
268.531982	154.240000
268.624969	154.000000
268.717987	154.240000
268.810944	154.480000
268.903961	154.740000
268.996948	154.340000
269.089905	155.040000
269.182892	155.040000
269.275879	155.160000
269.368866	154.620000
269.461853	155.120000
269.554871	154.700000
269.647858	154.400000
269.740845	154.620000
269.833832	155.480000
269.926819	155.240000
270.019806	155.340000
270.112793	154.960000
270.205811	155.000000
270.298798	154.820000
270.391785	155.440000
270.484772	155.220000
270.577789	155.660000
270.670776	155.400000
270.763763	155.440000
270.856750	155.120000
270.949768	154.700000
271.042786	154.620000
271.135773	154.380000
271.228790	154.480000
271.321808	153.940000
271.414795	154.000000
271.507782	153.960000
271.600800	153.840000
271.693817	154.100000
271.786804	154.820000
271.879822	155.280000
271.972809	155.180000
272.065826	155.900000
272.158844	154.980000
272.251831	155.220000
272.344849	155.040000
272.437866	155.000000
272.530853	154.840000
272.623871	155.500000
272.716888	154.460000
272.809906	154.760000
272.902893	154.720000
272.995911	154.100000
273.088928	153.680000
273.181946	154.140000
273.274963	153.500000
273.367981	153.580000
273.460999	153.840000
273.554047	154.280000
273.647003	154.740000
273.740051	155.180000
273.833069	155.480000
273.926086	155.940000
274.019135	155.680000
274.112152	155.260000
274.205170	155.300000
274.298187	155.540000
274.391205	154.940000
274.484222	155.020000
274.577240	155.020000
274.670258	154.840000
274.763306	154.340000
274.856323	154.900000
274.949341	154.780000
275.042358	155.020000
275.135406	154.680000
275.228424	154.820000
275.321442	154.720000
275.414490	154.460000
275.507507	154.660000
275.600525	155.680000
275.693573	155.300000
275.786591	154.580000
275.879669	155.200000
275.972656	154.440000
276.065735	153.860000
276.158752	154.760000
276.251801	155.940000
276.344818	155.920000
276.437866	156.440000
276.530884	156.440000
276.623932	155.720000
276.716980	155.360000
276.809998	155.300000
276.903046	155.180000
276.996094	155.920000
277.089111	156.380000
277.182159	156.980000
277.275208	156.640000
277.368256	156.900000
277.461304	156.420000
277.554321	155.660000
277.647369	155.220000
277.740417	155.040000
277.833466	154.740000
277.926514	154.400000
278.019562	155.500000
278.112610	154.820000
278.205688	155.080000
278.298706	155.020000
278.391785	155.020000
278.484833	154.300000
278.577881	154.280000
278.670929	154.760000
278.763977	154.940000
278.857025	154.960000
278.950073	154.960000
279.043121	155.000000
279.136169	154.520000
279.229248	154.020000
279.322296	154.160000
279.415344	154.100000
279.508392	153.940000
279.601440	154.020000
279.694519	154.200000
279.787567	154.200000
279.880615	153.840000
279.973694	153.880000
280.066742	153.780000
280.159790	153.860000
280.252869	153.320000
280.345917	153.980000
280.438995	153.880000
280.532074	153.800000
280.625122	154.320000
280.718201	155.440000
280.811279	155.300000
280.904327	155.580000
280.997406	155.960000
281.090454	155.880000
281.183533	154.980000
281.276581	154.760000
281.369659	154.480000
281.462738	154.440000
281.555786	154.620000
281.648865	154.960000
281.741943	155.040000
281.835022	155.840000
281.928070	155.680000
282.021149	154.900000
282.114227	154.800000
282.207306	154.700000
282.300385	154.800000
282.393433	154.900000
282.486511	155.200000
282.579590	155.640000
282.672668	156.200000
282.765747	155.380000
282.858856	155.300000
282.951904	155.600000
283.045013	155.600000
283.138062	155.300000
283.231171	155.820000
283.324249	155.860000
283.417328	155.740000
283.510406	155.340000
283.603485	155.480000
283.696564	155.060000
283.789642	155.100000
283.882751	155.100000
283.975830	155.360000
284.068909	154.940000
284.161987	155.720000
284.255066	155.060000
284.348175	154.760000
284.441254	154.740000
284.534332	155.060000
284.627441	154.460000
284.720520	154.580000
284.813599	154.780000
284.906708	154.980000
284.999786	154.260000
285.092896	154.000000
285.185974	155.420000
285.279053	154.560000
285.372192	154.400000
285.465240	155.400000
285.558380	155.440000
285.651459	154.380000
285.744568	155.860000
285.837677	155.600000
285.930756	155.380000
286.023865	155.780000
286.116943	155.300000
286.210052	154.940000
286.303162	154.860000
286.396240	154.780000
286.489349	154.400000
286.582458	155.040000
286.675568	154.740000
286.768646	154.980000
286.861755	155.640000
286.954865	156.580000
287.047974	156.080000
287.141083	155.780000
287.234161	155.260000
287.327271	154.520000
287.420380	154.220000
287.513519	154.280000
287.606598	154.600000
287.699738	155.260000
287.792816	155.260000
287.885956	155.260000
287.979034	155.540000
288.072174	155.360000
288.165283	154.940000
288.258392	155.100000
288.351501	154.340000
288.444611	154.340000
288.537720	154.980000
288.630859	155.180000
288.723969	155.580000
288.817078	156.220000
288.910187	156.300000
289.003296	155.360000
289.096436	155.020000
289.189545	154.620000
289.282654	154.000000
289.375763	154.240000
289.468903	154.980000
289.562012	155.140000
289.655121	154.920000
289.748260	155.600000
289.841400	155.940000
289.934509	155.460000
290.027649	155.920000
290.120728	155.900000
290.213898	155.440000
290.306976	154.800000
290.400146	155.020000
290.493256	154.340000
290.586395	154.260000
290.679535	154.680000
290.772644	154.580000
290.865784	153.740000
290.958893	154.120000
291.052032	154.100000
291.145172	153.920000
291.238281	153.620000
291.331421	154.220000
291.424561	154.600000
291.517670	154.480000
291.610809	154.340000
291.703949	154.180000
291.797089	154.300000
291.890228	153.480000
291.983337	153.700000
292.076477	153.580000
292.169617	154.340000
292.262756	154.140000
292.355927	154.300000
292.449036	153.840000
292.542206	154.160000
292.635315	153.980000
292.728485	154.880000
292.821625	154.580000
292.914764	156.200000
293.007904	156.020000
293.101044	155.800000
293.194183	155.120000
293.287323	155.400000
293.380463	154.380000
293.473602	154.280000
293.566742	154.840000
293.659882	155.300000
293.753021	155.600000
293.846191	155.580000
293.939331	155.220000
294.032471	154.800000
294.125610	154.060000
294.218781	154.220000
294.311920	154.740000
294.405060	155.100000
294.498230	155.000000
294.591370	155.400000
294.684540	154.880000
294.777679	154.280000
294.870850	154.440000
294.963959	154.320000
295.057159	154.260000
295.150299	154.420000
295.243469	154.400000
295.336609	154.040000
295.429779	154.040000
295.522919	154.320000
295.616089	154.520000
295.709229	155.080000
295.802399	155.320000
295.895569	155.220000
295.988708	154.760000
296.081879	154.680000
296.175018	153.980000
296.268188	153.700000
296.361359	154.280000
296.454529	154.860000
296.547668	154.540000
296.640839	154.980000
296.734009	155.040000
296.827179	155.220000
296.920319	155.220000
297.013519	155.400000
297.106659	155.400000
297.199860	155.360000
297.292999	154.860000
297.386200	154.260000
297.479309	154.040000
297.572510	153.940000
297.665680	153.860000
297.758850	154.140000
297.852020	154.380000
297.945190	154.600000
298.038361	154.340000
298.131531	155.520000
298.224701	155.060000
298.317871	154.900000
298.411072	154.660000
298.504242	154.600000
298.597412	153.620000
298.690582	154.400000
298.783752	154.700000
298.876923	155.160000
298.970093	155.380000
299.063293	156.000000
299.156464	156.100000
299.249634	156.080000
299.342834	156.140000
299.436005	156.640000
299.529205	156.200000
299.622345	155.760000
299.715576	154.900000
299.808716	154.820000
299.901917	154.220000
299.995117	154.420000
300.088287	154.460000
300.181488	154.720000
300.274658	154.460000
300.367828	154.560000
300.461029	154.660000
300.554199	154.960000
300.647400	155.000000
300.740601	155.460000
300.833771	155.360000
300.926971	155.640000
301.020142	154.860000
301.113342	155.080000
301.206512	154.940000
301.299713	155.260000
301.392914	154.700000
301.486084	155.160000
301.579285	155.100000
301.672516	155.620000
301.765686	155.500000
301.858887	155.560000
301.952057	155.640000
302.045288	155.920000
302.138458	155.060000
302.231659	154.840000
302.324860	154.800000
302.418060	154.460000
302.511261	154.120000
302.604462	154.700000
302.697662	154.520000
302.790863	154.260000
302.884064	154.060000
302.977264	154.100000
303.070465	154.120000
303.163666	154.940000
303.256866	155.580000
303.350067	155.680000
303.443268	155.580000
303.536469	155.860000
303.629669	154.880000
303.722870	154.740000
303.816071	154.480000
303.909271	154.740000
304.002472	153.800000
304.095673	154.020000
304.188934	153.640000
304.282104	154.960000
304.375336	154.820000
304.468506	154.840000
304.561768	154.680000
304.654968	155.040000
304.748169	154.320000
304.841370	154.280000
304.934601	154.680000
305.027802	154.600000
305.121002	154.400000
305.214233	154.280000
305.307434	154.460000
305.400665	155.100000
305.493866	155.160000
305.587097	155.460000
305.680298	155.260000
305.773499	155.740000
305.866730	155.220000
305.959930	156.000000
306.053162	156.000000
306.146393	155.940000
306.239594	154.820000
306.332825	154.740000
306.426025	154.920000
306.519287	154.380000
306.612488	154.820000
306.705719	155.300000
306.798920	155.480000
306.892181	154.540000
306.985352	154.280000
307.078613	153.720000
307.171844	153.960000
307.265045	153.180000
307.358276	153.160000
307.451508	153.880000
307.544739	154.720000
307.637970	154.520000
307.731201	154.720000
307.824402	155.460000
307.917633	155.660000
308.010864	155.760000
308.104095	156.140000
308.197327	156.360000
308.290558	156.200000
308.383789	155.600000
308.477020	154.840000
308.570251	154.240000
308.663483	153.820000
308.756714	153.580000
308.849976	153.760000
308.943176	154.340000
309.036438	154.240000
309.129639	154.340000
309.222900	154.360000
309.316101	154.140000
309.409393	153.540000
309.502625	153.560000
309.595856	153.580000
309.689087	153.620000
309.782318	154.060000
309.875580	154.180000
309.968811	154.320000
310.062042	154.240000
310.155273	154.140000
310.248535	153.960000
310.341766	153.840000
310.434998	153.520000
310.528259	153.320000
310.621490	153.540000
310.714722	153.140000
310.807983	153.480000
310.901215	153.580000
310.994476	154.040000
311.087708	153.760000
311.181000	154.340000
311.274200	153.920000
311.367462	154.080000
311.460693	153.860000
311.553986	154.720000
311.647186	154.700000
311.740479	155.420000
311.833710	155.280000
311.926971	155.500000
312.020203	154.400000
312.113464	154.140000
312.206726	153.420000
312.299957	153.680000
312.393219	154.120000
312.486481	154.680000
312.579712	154.700000
312.672974	154.780000
312.766235	154.660000
312.859497	154.340000
312.952759	153.940000
313.045990	154.620000
313.139252	154.240000
313.232513	154.480000
313.325775	154.500000
313.419037	154.680000
313.512299	153.740000
313.605530	154.580000
313.698822	154.600000
313.792053	154.800000
313.885345	154.580000
313.978577	154.780000
314.071869	154.140000
314.165131	154.180000
314.258392	154.140000
314.351654	154.320000
314.444916	153.820000
314.538177	154.740000
314.631439	155.280000
314.724701	154.900000
314.817993	154.760000
314.911255	155.320000
315.004517	154.800000
315.097778	154.300000
315.191040	155.040000
315.284302	155.060000
315.377594	154.500000
315.470856	154.360000
315.564117	153.840000
315.657379	153.200000
315.750671	153.000000
315.843933	153.720000
315.937195	153.460000
316.030518	153.560000
316.123749	153.440000
316.217041	154.360000
316.310303	154.100000
316.403595	154.560000
316.496857	155.080000
316.590149	155.660000
316.683411	154.800000
316.776703	154.620000
316.869965	154.380000
316.963257	154.080000
317.056519	153.360000
317.149811	153.460000
317.243073	153.780000
317.336365	154.200000
317.429626	154.380000
317.522919	154.720000
317.616180	154.800000
317.709473	154.440000
317.802765	153.740000
317.896027	153.840000
317.989319	154.320000
318.082611	154.120000
318.175873	154.300000
318.269165	154.560000
318.362488	154.140000
318.455750	153.820000
318.549042	154.560000
318.642303	155.220000
318.735626	155.060000
318.828888	155.440000
318.922211	154.760000
319.015472	155.380000
319.108765	154.280000
319.202057	154.180000
319.295349	154.120000
319.388641	154.620000
319.481934	153.480000
319.575226	153.800000
319.668518	154.300000
319.761810	154.820000
319.855103	154.860000
319.948395	155.160000
320.041687	155.480000
320.134979	155.400000
320.228271	154.700000
320.321564	154.360000
320.414856	154.300000
320.508148	153.620000
320.601440	153.140000
320.694763	153.180000
320.788025	153.980000
320.881348	153.920000
320.974640	154.460000
321.067963	153.980000
321.161224	153.900000
321.254547	153.100000
321.347839	153.820000
321.441162	153.080000
321.534454	154.020000
321.627747	154.020000
321.721069	155.020000
321.814362	154.860000
321.907654	155.560000
322.000946	155.500000
322.094269	156.040000
322.187561	155.560000
322.280884	155.620000
322.374176	155.760000
322.467468	156.240000
322.560791	156.260000
322.654083	156.620000
322.747406	156.580000
322.840698	156.600000
322.934021	156.640000
323.027344	156.440000
323.120636	155.760000
323.213959	155.540000
323.307251	154.900000
323.400574	154.120000
323.493866	153.840000
323.587219	154.220000
323.680511	154.020000
323.773834	154.340000
323.867157	154.520000
323.960449	154.740000
324.053772	154.380000
324.147095	154.660000
324.240387	155.160000
324.333710	155.380000
324.427032	154.980000
324.520355	155.240000
324.613647	154.660000
324.706970	154.420000
324.800293	154.420000
324.893616	155.160000
324.986938	155.520000
325.080231	155.320000
325.173553	155.600000
325.266876	156.040000
325.360199	155.740000
325.453522	154.840000
325.546875	154.920000
325.640167	155.000000
325.733521	155.020000
325.826813	155.520000
325.920166	155.500000
326.013489	155.520000
326.106812	154.520000
326.200134	153.360000
326.293457	152.320000
326.386780	152.760000
326.480103	152.720000
326.573425	153.060000
326.666748	153.580000
326.760071	154.380000
326.853424	154.140000
326.946747	154.280000
327.040070	155.020000
327.133392	154.860000
327.226715	154.040000
327.320068	153.980000
327.413391	154.580000
327.506714	153.620000
327.600037	153.640000
327.693390	154.180000
327.786713	154.260000
327.880066	153.960000
327.973358	154.440000
328.066742	154.980000
328.160034	154.620000
328.253418	154.940000
328.346710	154.740000
328.440063	154.540000
328.533417	153.840000
328.626740	154.140000
328.720093	153.880000
328.813416	153.900000
328.906769	153.980000
329.000092	154.600000
329.093445	154.680000
329.186768	154.500000
329.280121	154.780000
329.373444	155.160000
329.466797	154.820000
329.560120	154.800000
329.653473	155.120000
329.746796	154.800000
329.840149	154.260000
329.933502	154.280000
330.026825	154.180000
330.120178	153.620000
330.213562	153.620000
330.306854	153.660000
330.400238	153.780000
330.493561	153.660000
330.586945	154.980000
330.680237	155.120000
330.773621	155.420000
330.866974	155.420000
330.960327	155.620000
331.053680	154.960000
331.147003	155.280000
331.240356	155.320000
331.333710	155.400000
331.427063	155.160000
331.520416	154.860000
331.613770	154.380000
331.707123	154.520000
331.800476	154.660000
331.893829	155.560000
331.987152	155.820000
332.080505	155.980000
332.173859	155.800000
332.267212	154.980000
332.360565	153.920000
332.453918	153.480000
332.547333	153.360000
332.640656	153.360000
332.734039	154.020000
332.827362	154.240000
332.920746	154.740000
333.014069	155.360000
333.107452	155.680000
333.200806	156.020000
333.294159	155.900000
333.387543	155.320000
333.480896	154.580000
333.574249	154.120000
333.667603	153.520000
333.760956	153.800000
333.854340	153.980000
333.947693	154.100000
334.041046	154.060000
334.134430	154.380000
334.227783	154.480000
334.321136	154.440000
334.414520	154.180000
334.507874	154.500000
334.601227	154.400000
334.694611	154.120000
334.787964	154.420000
334.881348	154.680000
334.974701	154.800000
335.068085	154.880000
335.161438	155.300000
335.254822	155.120000
335.348175	155.400000
335.441559	154.780000
335.534943	155.300000
335.628296	154.760000
335.721680	154.780000
335.815033	154.900000
335.908417	155.280000
336.001770	154.760000
336.095154	155.100000
336.188538	155.120000
336.281891	154.500000
336.375275	154.060000
336.468658	153.920000
336.562012	153.720000
336.655396	153.880000
336.748779	154.540000
336.842133	154.860000
336.935516	155.460000
337.028900	155.420000
337.122284	155.300000
337.215637	155.280000
337.309021	155.260000
337.402435	154.640000
337.495789	154.420000
337.589203	154.400000
337.682526	153.840000
337.775940	154.060000
337.869324	154.320000
337.962708	153.920000
338.056091	154.520000
338.149475	154.420000
338.242859	154.420000
338.336243	154.220000
338.429626	154.720000
338.523010	154.080000
338.616394	154.240000
338.709778	154.080000
338.803162	154.000000
338.896545	154.280000
338.989929	153.920000
339.083313	154.100000
339.176697	153.900000
339.270081	153.860000
339.363464	154.240000
339.456848	155.200000
339.550232	154.500000
339.643616	154.340000
339.737030	154.300000
339.830383	153.620000
339.923828	153.420000
340.017181	153.860000
340.110596	154.060000
340.203949	154.020000
340.297363	153.940000
340.390778	153.900000
340.484161	154.160000
340.577545	153.900000
340.670959	154.220000
340.764343	154.360000
340.857727	154.360000
340.951111	153.620000
341.044525	154.180000
341.137909	153.620000
341.231293	153.520000
341.324707	153.020000
341.418091	154.140000
341.511505	154.280000
341.604889	154.600000
341.698303	154.740000
341.791687	154.900000
341.885071	154.200000
341.978485	153.800000
342.071899	154.060000
342.165283	154.380000
342.258698	154.600000
342.352081	155.120000
342.445496	155.680000
342.538879	155.560000
342.632324	155.120000
342.725708	155.200000
342.819122	154.640000
342.912506	154.120000
343.005920	154.000000
343.099335	154.780000
343.192719	154.500000
343.286133	154.480000
343.379547	154.460000
343.472931	154.360000
343.566345	153.560000
343.659760	153.900000
343.753143	153.760000
343.846558	153.660000
343.939972	153.760000
344.033386	154.900000
344.126770	154.520000
344.220184	154.720000
344.313599	155.540000
344.407043	155.760000
344.500427	154.680000
344.593872	155.320000
344.687225	155.040000
344.780670	154.220000
344.874054	154.220000
344.967499	154.960000
345.060913	154.740000
345.154327	155.060000
345.247742	154.940000
345.341156	154.480000
345.434570	153.620000
345.527985	153.340000
345.621399	153.280000
345.714813	153.460000
345.808228	153.760000
345.901642	153.780000
345.995056	153.480000
346.088470	154.060000
346.181885	154.080000
346.275299	153.860000
346.368713	153.720000
346.462128	153.840000
346.555573	153.560000
346.648987	153.840000
346.742401	153.940000
346.835815	154.860000
346.929260	154.460000
347.022644	154.300000
347.116119	154.500000
347.209503	154.820000
347.302948	155.560000
347.396362	156.380000
347.489807	156.600000
347.583221	156.760000
347.676636	156.460000
347.770050	154.980000
347.863495	154.580000
347.956909	154.320000
348.050323	153.560000
348.143768	153.340000
348.237183	153.220000
348.330597	153.540000
348.424042	153.780000
348.517456	154.340000
348.610901	154.680000
348.704315	154.880000
348.797760	154.580000
348.891174	154.160000
348.984619	153.560000
349.078033	153.920000
349.171448	154.740000
349.264923	154.460000
349.358337	154.600000
349.451782	154.920000
349.545197	154.040000
349.638641	153.000000
349.732086	152.680000
349.825500	153.180000
349.918945	152.640000
350.012390	153.340000
350.105804	153.900000
350.199249	154.420000
350.292664	154.520000
350.386108	155.120000
350.479553	155.660000
350.572968	155.660000
350.666412	155.780000
350.759857	155.500000
350.853302	155.880000
350.946716	154.840000
351.040161	154.740000
351.133606	154.720000
351.227081	154.660000
351.320465	155.020000
351.413940	155.320000
351.507355	155.440000
351.600830	155.780000
351.694244	155.480000
351.787720	155.060000
351.881104	155.020000
351.974579	154.720000
352.067993	155.240000
352.161469	155.440000
352.254883	154.600000
352.348358	154.440000
352.441803	154.700000
352.535248	154.040000
352.628693	154.440000
352.722137	154.680000
352.815582	154.920000
352.909027	155.000000
353.002472	155.080000
353.095917	154.700000
353.189362	155.300000
353.282806	155.220000
353.376251	155.040000
353.469696	154.440000
353.563141	155.160000
353.656586	154.700000
353.750061	154.180000
353.843475	153.960000
353.936981	154.620000
354.030396	153.580000
354.123871	153.600000
354.217285	154.740000
354.310760	155.000000
354.404175	154.940000
354.497681	155.000000
354.591095	155.140000
354.684570	154.160000
354.777985	153.980000
354.871490	153.540000
354.964935	154.460000
355.058380	154.560000
355.151855	154.500000
355.245300	155.100000
355.338745	155.620000
355.432220	155.080000
355.525665	154.620000
355.619110	155.100000
355.712585	154.640000
355.806030	154.300000
355.899475	153.700000
355.992950	154.360000
356.086426	155.020000
356.179871	155.220000
356.273346	155.440000
356.366791	156.260000
356.460266	156.400000
356.553711	155.700000
356.647186	155.400000
356.740631	155.280000
356.834106	154.760000
356.927551	154.660000
357.021027	154.780000
357.114471	154.760000
357.207947	154.460000
357.301422	154.920000
357.394867	154.660000
357.488342	154.940000
357.581818	155.540000
357.675262	156.040000
357.768738	155.660000
357.862213	155.040000
357.955658	154.940000
358.049133	154.540000
358.142609	154.640000
358.236053	154.540000
358.329529	155.120000
358.423035	154.960000
358.516449	154.640000
358.609955	154.820000
358.703400	155.560000
358.796906	155.380000
358.890350	154.780000
358.983826	155.320000
359.077271	154.520000
359.170776	153.820000
359.264221	153.580000
359.357727	154.200000
359.451172	154.260000
359.544647	154.600000
359.638123	154.600000
359.731598	155.240000
359.825073	155.300000
359.918549	155.220000
360.012024	155.200000
360.105499	154.780000
360.198975	154.580000
360.292450	154.600000
360.385925	154.260000
360.479401	153.840000
360.572876	154.840000
360.666351	155.020000
360.759857	154.880000
360.853302	155.000000
360.946808	154.880000
361.040253	154.220000
361.133759	153.580000
361.227203	153.700000
361.320709	153.260000
361.414154	153.760000
361.507660	154.020000
361.601105	154.660000
361.694641	155.020000
361.788086	155.060000
361.881592	155.640000
361.975067	155.320000
362.068542	155.560000
362.162018	155.600000
362.255524	155.760000
362.348999	155.560000
362.442474	155.800000
362.535950	155.200000
362.629456	154.580000
362.722931	154.360000
362.816406	154.500000
362.909882	154.960000
363.003387	154.700000
363.096863	155.380000
363.190338	155.400000
363.283875	154.880000
363.377319	154.500000
363.470825	155.280000
363.564301	154.200000
363.657806	154.760000
363.751282	154.520000
363.844788	155.360000
363.938232	154.560000
364.031769	155.540000
364.125214	155.380000
364.218750	156.140000
364.312225	154.640000
364.405731	154.800000
364.499207	154.140000
364.592712	153.820000
364.686188	153.580000
364.779694	154.100000
364.873169	154.320000
364.966675	154.280000
365.060150	154.380000
365.153656	154.680000
365.247131	154.960000
365.340637	155.140000
365.434143	155.720000
365.527618	155.820000
365.621155	154.700000
365.714600	154.540000
365.808136	154.540000
365.901611	153.460000
365.995117	153.240000
366.088593	153.440000
366.182129	153.100000
366.275604	153.040000
366.369110	153.660000
366.462585	153.660000
366.556122	154.620000
366.649567	154.900000
366.743103	154.700000
366.836609	154.440000
366.930115	154.800000
367.023590	154.760000
367.117096	154.640000
367.210602	154.720000
367.304108	155.520000
367.397614	156.080000
367.491119	155.800000
367.584595	156.280000
367.678101	156.460000
367.771606	155.980000
367.865112	155.040000
367.958649	154.440000
368.052124	154.060000
368.145660	153.920000
368.239136	154.360000
368.332672	154.620000
368.426147	155.080000
368.519684	154.740000
368.613159	154.800000
368.706696	154.380000
368.800171	154.460000
368.893707	154.320000
368.987183	154.620000
369.080719	154.620000
369.174225	154.320000
369.267731	154.020000
369.361237	153.760000
369.454742	153.840000
369.548248	154.060000
369.641754	154.120000
369.735260	154.220000
369.828766	153.800000
369.922272	154.200000
370.015808	153.660000
370.109314	153.480000
370.202820	153.340000
370.296356	154.460000
370.389832	154.040000
370.483368	153.980000
370.576874	154.000000
370.670410	154.500000
370.763885	153.580000
370.857422	153.320000
370.950928	153.320000
371.044464	154.280000
371.137939	154.120000
371.231476	154.820000
371.324982	155.500000
371.418518	155.900000
371.512024	155.520000
371.605560	155.380000
371.699066	155.320000
371.792572	154.920000
371.886108	154.980000
371.979614	154.600000
372.073120	154.940000
372.166656	154.600000
372.260162	154.660000
372.353668	154.300000
372.447205	154.220000
372.540710	154.220000
372.634277	154.220000
372.727753	154.380000
372.821320	154.600000
372.914795	154.680000
373.008362	154.400000
373.101837	154.900000
373.195404	154.460000
373.288879	154.240000
373.382446	155.040000
373.475922	155.160000
373.569489	155.420000
373.662964	156.200000
373.756531	156.500000
373.850037	156.120000
373.943573	155.840000
374.037109	154.780000
374.130615	154.660000
374.224152	154.720000
374.317657	154.280000
374.411194	155.280000
374.504730	155.440000
374.598236	155.120000
374.691772	154.800000
374.785309	155.080000
374.878815	153.860000
374.972351	154.440000
375.065887	154.500000
375.159454	155.600000
375.252930	155.460000
375.346497	156.180000
375.440002	156.300000
375.533569	156.060000
375.627045	154.740000
375.720612	154.960000
375.814117	154.860000
375.907684	154.460000
376.001160	154.200000
376.094727	153.880000
376.188232	154.260000
376.281799	154.220000
376.375336	154.300000
376.468872	155.220000
376.562408	155.640000
376.655914	155.020000
376.749451	154.980000
376.842987	155.220000
376.936523	154.760000
377.030060	155.060000
377.123596	155.500000
377.217133	155.100000
377.310669	155.200000
377.404205	155.600000
377.497772	155.800000
377.591278	155.340000
377.684845	156.620000
377.778351	156.800000
377.871918	156.140000
377.965424	155.360000
378.058990	155.240000
378.152496	154.260000
378.246063	154.080000
378.339569	154.520000
378.433136	154.840000
378.526642	155.060000
378.620209	155.080000
378.713745	154.660000
378.807312	155.140000
378.900848	155.140000
378.994385	155.460000
379.087921	154.860000
379.181458	155.340000
379.274994	154.440000
379.368530	154.420000
379.462097	154.320000
379.555634	155.220000
379.649170	154.520000
379.742706	154.760000
379.836273	155.080000
379.929810	154.880000
380.023376	154.400000
380.116882	154.540000
380.210449	154.420000
380.303986	153.740000
380.397552	153.180000
380.491058	153.320000
380.584656	153.060000
380.678162	153.460000
380.771729	153.840000
380.865265	155.020000
380.958832	155.140000
381.052368	155.660000
381.145935	155.880000
381.239471	156.300000
381.333008	155.760000
381.426575	155.440000
381.520111	155.580000
381.613647	155.380000
381.707214	155.060000
381.800751	154.480000
381.894318	155.040000
381.987854	154.300000
382.081421	153.920000
382.174988	154.000000
382.268524	153.900000
382.362091	153.740000
382.455627	154.760000
382.549194	154.340000
382.642731	153.680000
382.736298	154.040000
382.829834	153.460000
382.923401	153.880000
383.016937	154.580000
383.110504	155.200000
383.204041	155.380000
383.297607	156.220000
383.391174	154.740000
383.484741	155.180000
383.578278	154.720000
383.671844	154.360000
383.765411	153.260000
383.858948	154.540000
383.952515	153.900000
384.046051	154.680000
384.139618	155.200000
384.233185	156.060000
384.326721	155.740000
384.420288	156.400000
384.513855	156.140000
384.607422	156.400000
384.700989	156.340000
384.794525	155.600000
384.888123	155.420000
384.981659	155.700000
385.075226	155.040000
385.168762	154.620000
385.262360	155.000000
385.355896	153.920000
385.449463	153.600000
385.542999	153.780000
385.636597	154.680000
385.730164	154.700000
385.823730	154.900000
385.917267	154.580000
386.010834	154.940000
386.104401	154.460000
386.197968	154.900000
386.291534	155.420000
386.385101	155.720000
386.478668	155.640000
386.572235	155.780000
386.665802	154.900000
386.759338	154.440000
386.852905	154.220000
386.946472	153.940000
387.040070	153.840000
387.133606	154.120000
387.227203	154.300000
387.320740	154.440000
387.414337	154.260000
387.507874	154.020000
387.601471	154.200000
387.695007	153.920000
387.788605	153.800000
387.882141	154.000000
387.975739	154.080000
388.069275	153.800000
388.162872	154.080000
388.256439	154.100000
388.350037	154.020000
388.443604	153.900000
388.537170	154.040000
388.630737	154.640000
388.724304	154.720000
388.817871	154.540000
388.911438	154.620000
389.005005	154.880000
389.098602	154.820000
389.192169	154.760000
389.285736	155.300000
389.379333	155.280000
389.472870	154.800000
389.566467	154.640000
389.660034	154.800000
389.753632	154.100000
389.847168	154.400000
389.940765	154.720000
390.034332	155.020000
390.127930	154.200000
390.221466	154.380000
390.315063	154.060000
390.408630	153.520000
390.502228	152.580000
390.595795	153.500000
390.689362	153.780000
390.782959	154.120000
390.876526	154.560000
390.970093	154.500000
391.063690	155.060000
391.157257	155.020000
391.250824	155.140000
391.344421	154.900000
391.437988	155.740000
391.531555	155.280000
391.625153	155.340000
391.718750	155.300000
391.812317	155.340000
391.905914	154.720000
391.999481	154.820000
392.093079	154.820000
392.186615	155.240000
392.280243	155.260000
392.373779	155.740000
392.467407	156.240000
392.560944	156.380000
392.654572	155.580000
392.748108	155.720000
392.841736	155.520000
392.935303	154.620000
393.028900	154.320000
393.122467	154.380000
393.216064	153.880000
393.309631	153.100000
393.403229	153.020000
393.496796	152.860000
393.590393	152.420000
393.683990	153.060000
393.777557	154.060000
393.871155	154.040000
393.964722	154.620000
394.058350	155.100000
394.151917	155.080000
394.245514	154.660000
394.339081	155.100000
394.432678	155.160000
394.526245	154.880000
394.619873	154.340000
394.713409	154.360000
394.807037	154.000000
394.900604	153.860000
394.994202	154.100000
395.087769	154.460000
395.181396	154.100000
395.274994	154.840000
395.368561	154.280000
395.462158	154.420000
395.555756	153.980000
395.649353	154.640000
395.742920	154.040000
395.836517	155.060000
395.930115	154.480000
396.023712	154.760000
396.117279	154.780000
396.210876	154.420000
396.304474	153.720000
396.398071	154.200000
396.491669	154.460000
396.585266	154.040000
396.678833	154.060000
396.772461	154.260000
396.866028	153.840000
396.959656	153.980000
397.053223	154.380000
397.146851	154.040000
397.240417	154.040000
397.334015	155.100000
397.427582	154.660000
397.521210	154.640000
397.614807	155.300000
397.708405	155.140000
397.802002	154.640000
397.895599	155.480000
397.989197	155.320000
398.082794	155.220000
398.176392	155.700000
398.269989	155.660000
398.363586	155.380000
398.457184	156.520000
398.550781	156.700000
398.644379	156.600000
398.737976	156.540000
398.831573	157.180000
398.925201	156.920000
399.018768	158.680000
399.112396	160.940000
399.205963	165.200000
399.299591	170.680000
399.393158	179.580000
399.486786	193.880000
399.580353	219.340000
399.673981	267.900000
399.767578	353.680000
399.861206	485.100000
399.954773	650.480000
400.048401	816.380000
400.141998	941.700000
400.235596	990.360000
400.329193	947.260000
400.422791	826.540000
400.516418	666.980000
400.610016	507.940000
400.703613	378.020000
400.797211	285.600000
400.890808	228.780000
400.984436	197.480000
401.078033	180.600000
401.171631	171.380000
401.265259	166.940000
401.358826	164.160000
401.452484	162.160000
401.546051	160.580000
401.639679	159.540000
401.733246	159.040000
401.826904	158.360000
401.920471	157.020000
402.014099	156.900000
402.107697	156.620000
402.201324	156.040000
402.294891	156.380000
402.388550	156.860000
402.482147	156.700000
402.575745	156.360000
402.669373	156.160000
402.762970	155.540000
402.856567	155.340000
402.950195	155.160000
403.043793	155.240000
403.137390	155.920000
403.231018	155.220000
403.324615	155.760000
403.418243	155.400000
403.511841	156.000000
403.605469	155.540000
403.699066	156.000000
403.792694	155.940000
403.886292	156.460000
403.979919	156.160000
404.073517	155.980000
404.167145	156.280000
404.260712	156.180000
404.354370	155.920000
404.447937	155.760000
404.541595	155.760000
404.635162	155.740000
404.728821	156.140000
404.822418	155.380000
404.916046	155.400000
405.009644	155.460000
405.103271	155.800000
405.196899	155.020000
405.290497	155.500000
405.384125	155.640000
405.477722	155.260000
405.571350	154.480000
405.664948	154.740000
405.758575	154.740000
405.852203	154.120000
405.945801	154.300000
406.039429	154.440000
406.133057	154.020000
406.226654	154.060000
406.320312	154.020000
406.413879	154.180000
406.507538	154.580000
406.601135	154.200000
406.694763	154.560000
406.788361	154.340000
406.882019	154.020000
406.975586	154.100000
407.069244	155.320000
407.162872	155.020000
407.256470	155.180000
407.350098	155.340000
407.443726	154.900000
407.537323	153.920000
407.630951	154.300000
407.724579	154.300000
407.818207	154.800000
407.911804	154.540000
408.005432	154.620000
408.099060	154.480000
408.192688	154.920000
408.286285	154.420000
408.379913	154.320000
408.473572	154.460000
408.567169	153.720000
408.660828	153.440000
408.754395	153.380000
408.848053	153.640000
408.941650	153.780000
409.035309	153.920000
409.128906	153.840000
409.222565	153.720000
409.316132	154.080000
409.409790	153.620000
409.503387	153.800000
409.597046	154.160000
409.690674	154.660000
409.784302	154.440000
409.877930	154.920000
409.971558	155.260000
410.065186	155.060000
410.158783	154.740000
410.252411	154.540000
410.346039	154.800000
410.439667	154.500000
410.533295	154.680000
410.626923	154.920000
410.720551	154.680000
410.814209	154.900000
410.907806	154.980000
411.001465	154.440000
411.095062	154.480000
411.188721	155.280000
411.282318	154.560000
411.375977	154.000000
411.469574	154.600000
411.563232	154.320000
411.656830	154.000000
411.750488	153.920000
411.844086	154.300000
411.937744	154.240000
412.031372	154.000000
412.125000	153.940000
412.218628	154.280000
412.312256	155.080000
412.405884	155.320000
412.499512	155.420000
412.593170	155.480000
412.686798	155.220000
412.780426	154.500000
412.874054	154.480000
412.967682	154.680000
413.061310	155.180000
413.154968	155.720000
413.248566	155.660000
413.342224	155.220000
413.435852	155.160000
413.529510	154.740000
413.623108	153.800000
413.716766	153.660000
413.810364	154.400000
413.904022	154.300000
413.997650	154.120000
414.091309	155.240000
414.184906	155.760000
414.278564	154.800000
414.372192	155.200000
414.465851	155.600000
414.559479	155.080000
414.653107	155.540000
414.746735	155.760000
414.840393	155.840000
414.934021	155.740000
415.027649	155.280000
415.121277	154.780000
415.214935	155.300000
415.308563	155.060000
415.402191	154.440000
415.495850	154.740000
415.589478	154.660000
415.683136	154.280000
415.776733	154.400000
415.870422	154.940000
415.964020	154.580000
416.057678	154.460000
416.151306	154.720000
416.244965	154.460000
416.338562	154.520000
416.432251	155.260000
416.525848	156.140000
416.619507	156.460000
416.713165	157.140000
416.806793	156.640000
416.900421	156.360000
416.994080	155.280000
417.087708	154.780000
417.181366	154.300000
417.274994	154.420000
417.368622	154.980000
417.462280	155.740000
417.555908	155.560000
417.649567	155.240000
417.743195	155.520000
417.836853	154.900000
417.930481	154.780000
418.024170	155.120000
418.117767	155.720000
418.211426	155.960000
418.305054	156.100000
418.398712	155.440000
418.492340	155.300000
418.585999	155.280000
418.679626	155.060000
418.773285	155.460000
418.866913	155.920000
418.960571	156.120000
419.054230	156.020000
419.147858	156.140000
419.241516	156.020000
419.335144	155.780000
419.428802	155.620000
419.522461	155.360000
419.616089	154.880000
419.709747	154.760000
419.803375	154.720000
419.897034	154.300000
419.990662	154.060000
420.084320	154.660000
420.177979	154.680000
420.271606	155.080000
420.365295	155.840000
420.458893	156.360000
420.552582	156.560000
420.646210	156.520000
420.739868	156.160000
420.833496	155.480000
420.927155	155.040000
421.020782	154.300000
421.114471	153.860000
421.208069	154.060000
421.301758	154.840000
421.395386	154.940000
421.489044	154.880000
421.582703	155.040000
421.676361	155.540000
421.769989	154.720000
421.863647	155.160000
421.957306	155.520000
422.050934	155.660000
422.144592	155.400000
422.238251	155.420000
422.331909	154.940000
422.425537	154.640000
422.519196	154.840000
422.612854	154.140000
422.706543	153.800000
422.800140	154.320000
422.893829	154.260000
422.987457	153.540000
423.081146	153.900000
423.174744	154.900000
423.268433	154.200000
423.362061	154.200000
423.455750	154.920000
423.549347	154.920000
423.643036	154.080000
423.736664	155.140000
423.830353	155.340000
423.924011	155.240000
424.017639	154.760000
424.111298	154.800000
424.204956	154.200000
424.298615	154.380000
424.392273	154.360000
424.485931	154.740000
424.579559	154.960000
424.673218	154.600000
424.766876	154.400000
424.860535	154.020000
424.954193	153.740000
425.047882	154.140000
425.141510	154.820000
425.235199	154.720000
425.328796	154.660000
425.422485	154.880000
425.516113	154.380000
425.609802	153.780000
425.703430	154.360000
425.797119	154.200000
425.890747	154.520000
425.984436	154.700000
426.078064	154.940000
426.171753	154.640000
426.265411	154.680000
426.359070	154.740000
426.452728	154.760000
426.546356	154.720000
426.640015	154.280000
426.733673	154.480000
426.827332	153.880000
426.920990	154.660000
427.014648	154.360000
427.108307	154.900000
427.201965	155.260000
427.295624	156.020000
427.389282	155.020000
427.482941	155.400000
427.576630	155.300000
427.670258	154.980000
427.763947	154.260000
427.857574	154.580000
427.951263	154.700000
428.044922	154.380000
428.138611	154.520000
428.232239	155.380000
428.325928	155.900000
428.419556	156.380000
428.513245	156.380000
428.606903	156.540000
428.700562	155.820000
428.794220	154.780000
428.887878	154.180000
428.981537	154.660000
429.075195	154.820000
429.168854	155.300000
429.262512	155.720000
429.356201	155.740000
429.449860	155.560000
429.543518	155.360000
429.637177	155.420000
429.730835	155.520000
429.824493	155.680000
429.918182	155.740000
430.011810	155.340000
430.105530	154.620000
430.199158	154.800000
430.292847	154.580000
430.386475	154.640000
430.480164	154.620000
430.573792	154.500000
430.667511	154.000000
430.761139	154.100000
430.854828	154.260000
430.948456	154.700000
431.042145	155.800000
431.135834	155.860000
431.229492	155.900000
431.323151	155.900000
431.416809	155.720000
431.510468	155.200000
431.604156	155.440000
431.697815	155.500000
431.791473	154.880000
431.885132	154.720000
431.978821	155.120000
432.072479	155.280000
432.166138	155.600000
432.259827	155.800000
432.353485	156.320000
432.447174	156.440000
432.540802	156.240000
432.634491	156.100000
432.728149	156.640000
432.821838	157.140000
432.915466	156.420000
433.009186	156.820000
433.102814	156.200000
433.196503	155.620000
433.290131	154.900000
433.383850	155.160000
433.477509	154.800000
433.571167	155.620000
433.664856	156.240000
433.758514	156.580000
433.852173	156.720000
433.945862	156.680000
434.039520	156.320000
434.133179	155.580000
434.226868	155.200000
434.320526	154.640000
434.414185	155.500000
434.507874	155.120000
434.601562	155.640000
434.695221	155.680000
434.788910	156.300000
434.882538	156.080000
434.976257	156.220000
435.069885	156.120000
435.163574	156.440000
435.257233	155.620000
435.350922	155.220000
435.444580	155.160000
435.538269	154.700000
435.631897	154.840000
435.725616	155.800000
435.819275	156.480000
435.912964	156.940000
436.006622	157.520000
436.100311	157.160000
436.193970	156.300000
436.287628	155.600000
436.381317	155.120000
436.474976	154.480000
436.568665	154.020000
436.662323	154.500000
436.756012	154.520000
436.849670	154.520000
436.943390	154.560000
437.037018	154.440000
437.130737	154.280000
437.224365	153.920000
437.318085	153.800000
437.411713	154.060000
437.505432	154.660000
437.599060	155.240000
437.692780	156.080000
437.786407	156.200000
437.880127	156.220000
437.973755	155.760000
438.067474	154.960000
438.161133	154.600000
438.254822	155.040000
438.348480	154.680000
438.442169	155.720000
438.535828	156.320000
438.629517	155.860000
438.723175	155.040000
438.816864	155.780000
438.910553	154.800000
439.004211	154.400000
439.097900	154.060000
439.191559	154.320000
439.285248	153.400000
439.378906	153.820000
439.472626	153.600000
439.566284	153.760000
439.659973	154.260000
439.753632	154.520000
439.847321	154.980000
439.940979	155.360000
440.034698	155.760000
440.128326	154.900000
440.222046	154.840000
440.315674	153.680000
440.409393	153.380000
440.503082	153.180000
440.596741	153.760000
440.690430	153.920000
440.784088	154.180000
440.877777	153.980000
440.971466	154.080000
441.065125	153.740000
441.158813	153.860000
441.252502	153.940000
441.346161	154.340000
441.439850	154.760000
441.533539	154.760000
441.627197	155.000000
441.720886	154.780000
441.814606	154.960000
441.908234	154.900000
442.001953	154.920000
442.095612	154.940000
442.189301	155.620000
442.282959	155.340000
442.376678	154.180000
442.470306	155.040000
442.564026	154.680000
442.657684	154.540000
442.751404	154.900000
442.845032	156.300000
442.938751	155.340000
443.032440	155.480000
443.126099	155.240000
443.219788	155.460000
443.313477	155.060000
443.407166	155.380000
443.500824	155.240000
443.594513	155.320000
443.688202	154.840000
443.781891	154.380000
443.875549	154.040000
443.969238	154.240000
444.062927	154.080000
444.156647	153.820000
444.250275	154.540000
444.343994	154.840000
444.437653	154.900000
444.531372	155.300000
444.625031	155.480000
444.718719	154.780000
444.812378	154.840000
444.906097	154.400000
444.999756	153.680000
445.093445	153.500000
445.187103	153.660000
445.280823	154.040000
445.374512	153.640000
445.468201	153.900000
445.561859	154.020000
445.655548	154.100000
445.749237	153.440000
445.842926	154.000000
445.936615	154.520000
446.030304	154.040000
446.123962	154.260000
446.217651	154.080000
446.311340	154.300000
446.405029	153.740000
446.498749	154.000000
446.592407	153.580000
446.686096	154.260000
446.779755	154.300000
446.873474	154.200000
446.967133	154.480000
447.060852	154.240000
447.154510	153.960000
447.248230	153.940000
447.341858	154.100000
447.435577	153.720000
447.529236	153.700000
447.622955	153.580000
447.716644	153.060000
447.810333	153.440000
447.904022	153.800000
447.997711	153.800000
448.091400	153.980000
448.185059	154.200000
448.278748	154.180000
448.372437	154.080000
448.466125	154.660000
448.559814	154.540000
448.653503	155.100000
448.747192	155.320000
448.840912	155.500000
448.934570	155.180000
449.028290	155.800000
449.121948	155.200000
449.215637	154.580000
449.309296	154.380000
449.403015	154.440000
449.496674	153.880000
449.590393	154.000000
449.684052	153.980000
449.777771	155.040000
449.871429	154.400000
449.965149	154.320000
450.058838	154.660000
450.152527	155.100000
450.246216	154.180000
450.339905	154.660000
450.433594	154.440000
450.527283	154.920000
450.620972	154.500000
450.714661	154.760000
450.808350	154.820000
450.902039	155.080000
450.995728	154.440000
451.089417	154.100000
451.183105	154.160000
451.276794	154.980000
451.370514	154.580000
451.464172	153.800000
451.557892	153.980000
451.651550	153.980000
451.745270	153.120000
451.838928	152.940000
451.932648	153.820000
452.026306	154.340000
452.120026	154.000000
452.213684	154.620000
452.307404	155.180000
452.401062	155.020000
452.494781	155.180000
452.588470	155.540000
452.682159	154.680000
452.775848	154.900000
452.869537	154.540000
452.963226	154.020000
453.056915	153.740000
453.150604	154.060000
453.244293	154.000000
453.337982	154.600000
453.431671	154.940000
453.525360	155.360000
453.619049	155.440000
453.712769	155.400000
453.806427	154.740000
453.900146	154.460000
453.993805	154.120000
454.087555	154.720000
454.181213	154.460000
454.274933	154.700000
454.368591	154.700000
454.462311	154.400000
454.555969	153.640000
454.649689	154.640000
454.743347	154.140000
454.837067	154.840000
454.930756	155.640000
455.024445	155.760000
455.118134	154.880000
455.211853	155.460000
455.305542	154.900000
455.399231	154.620000
455.492920	154.540000
455.586609	154.660000
455.680298	155.060000
455.773987	154.500000
455.867676	154.260000
455.961365	154.640000
456.055084	154.480000
456.148773	153.660000
456.242493	154.240000
456.336151	154.300000
456.429871	154.400000
456.523529	154.840000
456.617249	155.060000
456.710907	155.520000
456.804626	155.300000
456.898315	154.840000
456.992035	154.640000
457.085693	154.320000
457.179413	153.140000
457.273102	154.220000
457.366791	154.280000
457.460480	154.340000
457.554199	155.200000
457.647888	155.620000
457.741577	154.720000
457.835266	154.860000
457.928955	155.000000
458.022644	155.080000
458.116364	155.600000
458.210052	155.640000
458.303741	155.820000
458.397461	155.060000
458.491119	154.060000
458.584839	153.940000
458.678528	153.660000
458.772247	153.100000
458.865906	153.440000
458.959625	154.800000
459.053284	154.620000
459.147003	154.360000
459.240692	155.160000
459.334412	155.340000
459.428070	154.720000
459.521790	154.420000
459.615479	154.800000
459.709198	154.820000
459.802887	154.180000
459.896576	153.680000
459.990265	154.100000
460.083954	154.180000
460.177673	153.560000
460.271362	154.000000
460.365051	154.120000
460.458740	153.740000
460.552429	153.400000
460.646149	153.420000
460.739838	153.260000
460.833527	153.520000
460.927246	153.620000
461.020905	153.540000
461.114655	153.500000
461.208313	153.940000
461.302032	153.420000
461.395691	153.680000
461.489441	153.840000
461.583099	154.020000
461.676819	153.580000
461.770477	154.240000
461.864197	153.740000
461.957916	153.760000
462.051605	153.360000
462.145294	154.460000
462.238983	154.300000
462.332703	154.960000
462.426392	155.880000
462.520081	156.060000
462.613770	155.400000
462.707489	155.280000
462.801178	155.100000
462.894867	154.500000
462.988556	154.500000
463.082275	154.500000
463.175964	154.220000
463.269684	154.360000
463.363342	154.240000
463.457092	153.680000
463.550751	153.800000
463.644470	154.080000
463.738129	153.740000
463.831879	153.960000
463.925537	155.020000
464.019257	154.880000
464.112946	154.940000
464.206665	155.020000
464.300323	154.580000
464.394043	154.180000
464.487762	154.180000
464.581451	154.460000
464.675140	154.260000
464.768829	154.780000
464.862549	155.120000
464.956238	155.480000
465.049927	155.420000
465.143646	155.680000
465.237335	155.080000
465.331024	155.380000
465.424713	155.040000
465.518433	155.020000
465.612152	155.040000
465.705811	155.440000
465.799561	154.920000
465.893219	154.640000
465.986938	154.480000
466.080597	154.060000
466.174347	154.320000
466.268005	154.460000
466.361725	154.320000
466.455414	154.100000
466.549133	154.060000
466.642792	153.840000
466.736542	153.140000
466.830231	153.420000
466.923920	153.480000
467.017609	153.880000
467.111328	153.680000
467.205017	154.260000
467.298706	154.320000
467.392426	154.580000
467.486115	154.840000
467.579803	154.700000
467.673523	154.860000
467.767212	155.100000
467.860901	154.900000
467.954651	155.020000
468.048309	155.160000
468.142029	154.900000
468.235718	154.620000
468.329437	154.340000
468.423096	154.020000
468.516846	153.920000
468.610504	153.840000
468.704224	153.360000
468.797913	153.460000
468.891632	153.360000
468.985291	153.440000
469.079010	153.500000
469.172729	153.480000
469.266418	154.060000
469.360107	154.300000
469.453827	154.020000
469.547516	154.100000
469.641205	154.900000
469.734924	154.820000
469.828613	155.020000
469.922302	155.360000
470.016022	155.460000
470.109711	155.100000
470.203430	154.440000
470.297150	153.260000
470.390808	153.500000
470.484558	153.040000
470.578217	153.600000
470.671936	154.380000
470.765625	155.720000
470.859344	155.280000
470.953003	155.700000
471.046753	155.020000
471.140411	154.300000
471.234131	154.160000
471.327820	154.860000
471.421539	154.820000
471.515228	154.740000
471.608948	155.220000
471.702637	154.540000
471.796326	154.120000
471.890045	154.200000
471.983734	154.560000
472.077423	154.040000
472.171143	154.260000
472.264832	153.920000
472.358521	153.640000
472.452240	153.000000
472.545929	153.940000
472.639648	153.960000
472.733337	154.620000
472.827057	154.760000
472.920746	155.160000
473.014465	154.860000
473.108124	155.280000
473.201874	155.020000
473.295532	154.960000
473.389252	155.580000
473.482941	155.800000
473.576660	155.160000
473.670319	154.980000
473.764069	155.320000
473.857727	155.140000
473.951477	155.060000
474.045166	155.780000
474.138855	155.560000
474.232574	155.120000
474.326263	154.800000
474.419952	154.720000
474.513672	154.360000
474.607361	154.360000
474.701050	154.640000
474.794769	155.320000
474.888458	155.540000
474.982178	155.760000
475.075867	156.440000
475.169586	156.520000
475.263275	155.940000
475.356995	155.680000
475.450653	155.320000
475.544403	154.600000
475.638062	155.240000
475.731812	154.780000
475.825470	154.480000
475.919189	154.680000
476.012878	154.960000
476.106598	154.280000
476.200256	155.080000
476.294006	155.300000
476.387695	155.140000
476.481384	154.900000
476.575104	154.900000
476.668793	154.520000
476.762512	154.140000
476.856201	154.820000
476.949890	154.560000
477.043610	153.800000
477.137299	153.700000
477.230988	154.180000
477.324707	153.640000
477.418396	154.740000
477.512146	155.260000
477.605804	155.240000
477.699524	155.340000
477.793213	155.140000
477.886932	154.420000
477.980591	154.040000
478.074341	153.740000
478.167999	152.940000
478.261749	153.060000
478.355408	152.960000
478.449127	153.660000
478.542816	154.620000
478.636536	155.960000
478.730225	156.120000
478.823944	156.560000
478.917633	156.780000
479.011322	156.560000
479.105042	155.860000
479.198730	156.260000
479.292450	156.020000
479.386139	155.720000
479.479828	155.980000
479.573547	156.340000
479.667267	156.060000
479.760925	156.180000
479.854675	156.140000
479.948334	155.980000
480.042084	155.420000
480.135742	155.380000
480.229462	154.740000
480.323151	154.740000
480.416870	154.180000
480.510529	154.140000
480.604279	153.960000
480.697937	154.700000
480.791656	153.960000
480.885345	153.720000
480.979065	153.720000
481.072754	153.980000
481.166473	154.180000
481.260132	155.000000
481.353882	155.140000
481.447540	154.880000
481.541260	154.580000
481.635010	154.020000
481.728668	153.820000
481.822388	153.580000
481.916077	154.320000
482.009796	154.380000
482.103485	154.500000
482.197205	154.580000
482.290863	155.140000
482.384613	154.680000
482.478271	154.240000
482.571991	154.360000
482.665680	154.100000
482.759399	154.480000
482.853058	155.000000
482.946808	155.260000
483.040466	155.060000
483.134216	154.900000
483.227875	154.360000
483.321594	154.600000
483.415283	154.600000
483.509003	154.600000
483.602661	154.580000
483.696411	154.980000
483.790070	154.540000
483.883789	154.760000
483.977478	154.860000
484.071198	155.200000
484.164917	154.560000
484.258606	154.020000
484.352325	154.120000
484.445984	154.340000
484.539734	154.120000
484.633392	153.820000
484.727142	154.600000
484.820801	154.060000
484.914520	153.860000
485.008209	154.020000
485.101929	154.900000
485.195587	154.260000
485.289337	154.500000
485.382996	154.240000
485.476715	154.400000
485.570404	154.580000
485.664124	154.640000
485.757782	155.120000
485.851532	155.360000
485.945190	155.080000
486.038910	154.980000
486.132599	155.740000
486.226318	155.160000
486.319977	154.920000
486.413727	155.740000
486.507446	155.260000
486.601105	154.080000
486.694855	153.980000
486.788513	153.800000
486.882233	152.960000
486.975922	153.100000
487.069641	153.580000
487.163300	153.620000
487.257050	155.260000
487.350708	155.160000
487.444427	154.880000
487.538116	154.720000
487.631836	154.940000
487.725494	153.920000
487.819214	154.340000
487.912903	154.240000
488.006622	154.960000
488.100281	155.260000
488.194031	155.400000
488.287689	155.680000
488.381409	156.300000
488.475098	155.820000
488.568817	155.500000
488.662476	155.280000
488.756226	154.480000
488.849945	153.540000
488.943604	153.520000
489.037354	153.700000
489.131012	153.500000
489.224731	153.760000
489.318390	154.260000
489.412140	154.320000
489.505798	154.360000
489.599518	154.160000
489.693207	154.480000
489.786926	154.360000
489.880585	153.940000
489.974335	154.340000
490.067993	155.820000
490.161713	155.800000
490.255371	156.680000
490.349121	157.100000
490.442780	156.040000
490.536499	154.420000
490.630188	154.720000
490.723907	153.540000
490.817566	153.800000
490.911285	154.320000
491.004974	154.800000
491.098694	153.900000
491.192413	154.940000
491.286102	154.440000
491.379822	154.500000
491.473480	154.860000
491.567200	155.040000
491.660889	154.180000
491.754608	154.260000
491.848267	154.060000
491.941986	153.660000
492.035675	153.700000
492.129395	154.180000
492.223053	153.880000
492.316772	154.300000
492.410461	154.120000
492.504181	154.140000
492.597839	154.020000
492.691559	154.620000
492.785248	155.020000
492.878967	155.640000
492.972626	155.700000
493.066345	155.800000
493.160034	155.320000
493.253754	154.740000
493.347412	153.880000
493.441132	154.200000
493.534882	154.700000
493.628540	155.180000
493.722260	155.660000
493.815918	156.280000
493.909668	156.660000
494.003326	156.940000
494.097046	156.660000
494.190704	156.100000
494.284454	155.920000
494.378113	155.620000
494.471832	154.940000
494.565491	154.980000
494.659210	154.880000
494.752899	154.960000
494.846619	154.760000
494.940277	154.800000
495.033997	154.800000
495.127686	154.620000
495.221405	154.040000
495.315063	153.880000
495.408783	153.760000
495.502441	154.060000
495.596191	154.000000
495.689850	154.260000
495.783569	154.860000
495.877228	155.020000
495.970947	154.200000
496.064697	154.160000
496.158356	155.060000
496.252075	154.840000
496.345734	154.540000
496.439453	155.960000
496.533142	156.340000
496.626862	155.880000
496.720520	155.820000
496.814240	156.160000
496.907898	155.080000
497.001617	155.220000
497.095306	154.720000
497.189026	154.440000
497.282684	154.440000
497.376404	155.140000
497.470062	154.600000
497.563782	154.760000
497.657471	154.800000
497.751190	154.660000
497.844849	154.340000
497.938568	154.960000
498.032227	155.340000
498.125946	155.500000
498.219635	155.300000
498.313354	155.160000
498.407074	154.920000
498.500732	154.780000
498.594452	154.960000
498.688110	154.560000
498.781830	154.100000
498.875519	153.980000
498.969238	153.620000
499.062897	153.360000
499.156616	154.520000
499.250275	154.980000
499.343994	154.800000
499.437653	155.000000
499.531372	155.080000
499.625061	155.240000
499.718781	155.360000
499.812439	155.820000
499.906158	155.720000
499.999817	155.600000
500.093536	154.700000
500.187195	154.640000
500.280914	154.440000
500.374573	154.780000
500.468323	154.340000
500.561981	154.800000
500.655701	154.540000
500.749420	154.580000
500.843079	154.620000
500.936798	155.000000
501.030457	155.180000
501.124176	155.560000
501.217834	155.580000
501.311554	155.420000
501.405212	155.300000
501.498962	154.500000
501.592621	154.240000
501.686340	154.480000
501.779999	154.520000
501.873718	154.860000
501.967377	154.960000
502.061096	155.020000
502.154755	154.320000
502.248474	154.300000
502.342133	154.080000
502.435852	154.300000
502.529510	155.100000
502.623230	156.180000
502.716888	155.680000
502.810608	155.740000
502.904266	156.060000
502.997986	155.500000
503.091705	154.720000
503.185364	154.940000
503.279083	155.040000
503.372772	154.700000
503.466492	154.200000
503.560150	154.460000
503.653870	154.840000
503.747528	154.900000
503.841248	155.140000
503.934906	155.520000
504.028625	155.040000
504.122284	155.220000
504.216003	155.660000
504.309662	155.100000
504.403381	155.300000
504.497040	155.500000
504.590759	154.780000
504.684418	154.760000
504.778137	155.260000
504.871796	155.280000
504.965515	154.980000
505.059174	155.200000
505.152893	154.160000
505.246521	153.720000
505.340240	153.280000
505.433899	153.380000
505.527618	153.720000
505.621338	154.520000
505.714996	154.720000
505.808716	154.920000
505.902374	155.860000
505.996094	155.840000
506.089752	155.580000
506.183472	155.640000
506.277130	155.840000
506.370850	155.260000
506.464508	155.160000
506.558228	155.260000
506.651886	154.720000
506.745605	154.660000
506.839264	154.760000
506.932983	154.680000
507.026611	154.520000
507.120331	155.020000
507.213989	154.300000
507.307709	154.400000
507.401367	154.380000
507.495087	155.280000
507.588745	154.820000
507.682465	156.000000
507.776123	155.780000
507.869843	155.880000
507.963531	155.300000
508.057190	156.060000
508.150909	155.280000
508.244568	155.280000
508.338287	155.160000
508.431946	154.840000
508.525665	154.500000
508.619324	154.360000
508.713013	154.580000
508.806671	155.140000
508.900391	155.900000
508.994049	156.120000
509.087769	156.000000
509.181427	155.780000
509.275146	155.040000
509.368774	154.160000
509.462494	153.880000
509.556152	154.160000
509.649872	154.580000
509.743530	154.680000
509.837250	154.880000
509.930878	154.920000
510.024597	154.720000
510.118256	153.940000
510.211975	153.860000
510.305695	153.820000
510.399353	154.000000
510.493042	154.680000
510.586700	155.380000
510.680420	156.260000
510.774078	156.040000
510.867798	156.060000
510.961426	155.160000
511.055145	154.840000
511.148804	154.160000
511.242523	155.100000
511.336151	155.060000
511.429871	155.560000
511.523529	155.280000
511.617249	155.220000
511.710876	154.640000
511.804596	154.280000
511.898254	154.260000
511.991974	154.740000
512.085632	154.540000
512.179321	154.500000
512.272949	155.300000
512.366699	155.540000
512.460327	155.220000
512.554077	156.360000
512.647766	156.380000
512.741394	155.540000
512.835144	155.860000
512.928772	155.760000
513.022461	155.260000
513.116150	154.920000
513.209839	155.700000
513.303467	155.000000
513.397217	154.740000
513.490845	154.380000
513.584595	154.120000
513.678223	153.440000
513.771912	153.100000
513.865601	153.420000
513.959290	153.140000
514.052917	153.420000
514.146667	154.200000
514.240295	154.780000
514.333984	155.260000
514.427673	155.140000
514.521362	155.980000
514.614990	155.560000
514.708740	155.440000
514.802368	155.380000
514.896057	155.840000
514.989746	156.080000
515.083435	155.800000
515.177124	156.120000
515.270752	156.080000
515.364502	155.840000
515.458130	155.220000
515.551819	154.980000
515.645508	154.600000
515.739197	154.220000
515.832825	154.520000
515.926575	154.280000
516.020203	154.700000
516.113892	155.160000
516.207520	155.360000
516.301270	155.280000
516.394897	155.620000
516.488586	156.000000
516.582275	155.880000
516.675964	155.380000
516.769592	155.200000
516.863281	155.520000
516.956970	155.340000
517.050659	155.100000
517.144287	155.260000
517.238037	155.360000
517.331665	154.420000
517.425354	154.120000
517.519043	153.980000
517.612732	154.540000
517.706421	154.460000
517.800049	154.740000
517.893738	154.620000
517.987427	154.680000
518.081116	154.300000
518.174744	154.080000
518.268433	154.400000
518.362122	155.140000
518.455811	155.300000
518.549438	155.860000
518.643127	156.880000
518.736816	156.580000
518.830505	155.460000
518.924133	154.940000
519.017822	154.780000
519.111511	154.140000
519.205200	154.660000
519.298828	154.920000
519.392517	155.160000
519.486206	155.460000
519.579895	155.620000
519.673523	154.960000
519.767212	155.260000
519.860901	155.880000
519.954590	155.360000
520.048279	154.860000
520.141907	155.220000
520.235596	156.140000
520.329224	156.120000
520.422974	156.080000
520.516602	156.100000
520.610291	155.380000
520.703918	155.020000
520.797607	154.560000
520.891296	154.460000
520.984985	154.600000
521.078613	155.520000
521.172302	154.640000
521.265930	155.240000
521.359680	155.940000
521.453308	155.920000
521.546997	155.320000
521.640625	155.580000
521.734314	155.240000
521.827942	154.720000
521.921692	154.960000
522.015320	155.200000
522.109009	155.240000
522.202698	154.700000
522.296326	154.680000
522.390015	154.740000
522.483704	154.760000
522.577393	154.300000
522.671021	154.120000
522.764709	153.580000
522.858337	153.980000
522.952026	154.180000
523.045654	154.900000
523.139404	156.000000
523.233032	156.400000
523.326721	155.700000
523.420349	155.420000
523.514038	154.780000
523.607666	154.900000
523.701355	154.400000
523.795044	154.720000
523.888733	154.720000
523.982361	155.460000
524.076050	154.880000
524.169678	155.640000
524.263367	155.180000
524.356995	155.140000
524.450684	154.940000
524.544373	154.540000
524.638062	154.300000
524.731750	154.600000
524.825378	154.440000
524.919067	153.780000
525.012695	154.140000
525.106384	153.800000
525.200012	154.020000
525.293701	153.820000
525.387329	154.420000
525.481018	154.380000
525.574646	154.760000
525.668396	154.440000
525.762024	155.280000
525.855713	155.340000
525.949341	154.760000
526.043030	154.780000
526.136658	154.700000
526.230347	154.280000
526.323975	154.040000
526.417664	154.420000
526.511292	154.500000
526.604980	154.740000
526.698608	154.700000
526.792297	154.840000
526.885925	155.000000
526.979614	155.000000
527.073303	154.920000
527.166931	154.640000
527.260620	154.680000
527.354309	154.920000
527.447998	154.600000
527.541626	154.160000
527.635315	154.440000
527.728943	155.040000
527.822632	155.100000
527.916260	155.420000
528.009949	155.900000
528.103577	155.680000
528.197266	154.720000
528.290894	154.500000
528.384583	154.120000
528.478210	153.920000
528.571899	154.280000
528.665527	154.620000
528.759216	154.600000
528.852844	155.140000
528.946533	154.920000
529.040161	154.820000
529.133850	154.680000
529.227478	154.740000
529.321167	154.760000
529.414856	155.580000
529.508484	156.000000
529.602173	155.640000
529.695801	155.480000
529.789490	155.140000
529.883057	154.580000
529.976746	154.280000
530.070374	155.060000
530.164062	154.900000
530.257690	155.300000
530.351379	155.680000
530.445007	155.560000
530.538696	154.780000
530.632324	155.480000
530.726013	155.200000
530.819641	154.760000
530.913330	154.840000
531.006958	155.180000
531.100647	155.040000
531.194275	154.880000
531.287964	155.120000
531.381592	154.600000
531.475220	154.440000
531.568848	154.080000
531.662537	154.060000
531.756226	154.400000
531.849854	154.580000
531.943542	154.960000
532.037170	154.300000
532.130859	154.640000
532.224487	154.380000
532.318176	154.360000
532.411804	154.600000
532.505432	155.380000
532.599060	155.180000
532.692749	155.080000
532.786377	155.380000
532.880066	154.480000
532.973694	153.920000
533.067383	153.960000
533.161011	153.780000
533.254639	153.680000
533.348267	154.220000
533.441956	155.000000
533.535583	154.820000
533.629272	155.120000
533.722900	154.280000
533.816589	153.860000
533.910156	153.900000
534.003845	153.540000
534.097534	153.520000
534.191162	154.780000
534.284851	155.120000
534.378479	154.540000
534.472107	154.800000
534.565735	154.520000
534.659424	154.360000
534.753052	154.560000
534.846741	154.100000
534.940369	155.120000
535.033997	155.100000
535.127625	155.120000
535.221313	155.580000
535.314941	155.900000
535.408630	154.880000
535.502197	155.440000
535.595886	155.180000
535.689514	154.660000
535.783203	155.100000
535.876831	155.880000
535.970459	155.720000
536.064087	155.400000
536.157776	155.380000
536.251404	155.100000
536.345093	154.340000
536.438721	154.260000
536.532349	154.540000
536.626038	154.520000
536.719666	155.020000
536.813293	154.960000
536.906921	155.060000
537.000610	155.440000
537.094238	155.260000
537.187866	155.260000
537.281494	155.280000
537.375183	155.220000
537.468811	154.920000
537.562439	155.180000
537.656067	154.760000
537.749756	154.840000
537.843384	155.060000
537.937012	155.160000
538.030640	154.680000
538.124329	154.700000
538.217896	155.280000
538.311584	155.540000
538.405212	155.540000
538.498901	156.080000
538.592468	156.940000
538.686157	156.100000
538.779785	154.960000
538.873413	154.760000
538.967102	154.380000
539.060730	153.400000
539.154358	154.060000
539.247986	154.480000
539.341675	154.240000
539.435242	154.400000
539.528931	155.000000
539.622559	154.640000
539.716187	155.160000
539.809814	155.440000
539.903503	155.380000
539.997070	154.960000
540.090759	155.040000
540.184387	154.620000
540.278015	155.100000
540.371643	155.600000
540.465332	155.660000
540.558899	155.400000
540.652588	155.500000
540.746216	155.180000
540.839844	154.940000
540.933472	154.960000
541.027100	154.860000
541.120728	155.000000
541.214417	154.740000
541.308044	154.860000
541.401672	154.640000
541.495300	154.640000
541.588928	154.360000
541.682617	154.260000
541.776184	153.760000
541.869873	154.280000
541.963440	154.520000
542.057129	154.620000
542.150757	154.780000
542.244385	154.360000
542.338013	153.700000
542.431641	153.720000
542.525269	153.400000
542.618958	153.980000
542.712524	154.680000
542.806213	154.700000
542.899780	154.720000
542.993469	154.640000
543.087036	154.020000
543.180725	153.380000
543.274292	153.900000
543.367981	153.860000
543.461548	154.440000
543.555237	154.700000
543.648926	155.600000
543.742493	156.160000
543.836182	156.180000
543.929749	155.620000
544.023437	155.520000
544.117004	155.180000
544.210693	154.580000
544.304260	154.580000
544.397949	154.540000
544.491516	154.900000
544.585205	154.940000
544.678772	154.380000
544.772461	155.220000
544.866028	155.600000
544.959717	155.320000
545.053284	154.740000
545.146973	155.200000
545.240540	154.560000
545.334229	154.860000
545.427795	154.960000
545.521423	155.200000
545.615051	154.980000
545.708679	155.400000
545.802307	154.900000
545.895935	154.720000
545.989624	155.580000
546.083191	155.580000
546.176880	155.500000
546.270447	155.240000
546.364136	155.680000
546.457703	155.120000
546.551331	155.240000
546.644958	155.020000
546.738586	155.860000
546.832214	155.460000
546.925842	155.440000
547.019409	155.960000
547.113098	155.580000
547.206665	155.000000
547.300354	155.100000
547.393921	155.260000
547.487549	155.140000
547.581177	155.140000
547.674805	155.260000
547.768433	154.500000
547.862061	154.600000
547.955627	153.760000
548.049316	154.460000
548.142883	154.900000
548.236572	155.580000
548.330139	155.440000
548.423767	155.700000
548.517456	155.420000
548.611023	155.280000
548.704651	154.800000
548.798279	154.820000
548.891907	155.300000
548.985474	154.920000
549.079163	155.020000
549.172729	155.060000
549.266357	154.520000
549.359985	154.300000
549.453613	153.940000
549.547180	153.620000
549.640869	154.180000
549.734436	154.380000
549.828064	154.820000
549.921631	155.380000
550.015320	155.040000
550.108887	155.420000
550.202515	155.360000
550.296143	154.320000
550.389771	154.340000
550.483337	154.480000
550.576965	154.040000
550.670593	154.720000
550.764221	155.400000
550.857849	155.100000
550.951477	154.960000
551.045105	154.720000
551.138672	154.540000
551.232300	154.060000
551.325928	154.500000
551.419556	154.960000
551.513123	154.960000
551.606750	154.380000
551.700378	154.840000
551.794006	154.660000
551.887573	154.340000
551.981201	154.620000
552.074768	154.920000
552.168457	154.360000
552.262024	155.440000
552.355652	155.480000
552.449219	156.100000
552.542847	156.120000
552.636475	156.080000
552.730103	154.940000
552.823669	154.640000
552.917297	153.780000
553.010864	153.820000
553.104553	154.260000
553.198181	153.820000
553.291748	154.620000
553.385376	154.980000
553.478943	154.900000
553.572571	154.920000
553.666199	155.300000
553.759827	154.820000
553.853394	154.480000
553.947021	154.340000
554.040588	154.420000
554.134216	154.500000
554.227783	155.300000
554.321411	155.960000
554.415039	155.720000
554.508667	155.560000
554.602234	155.940000
554.695862	155.080000
554.789429	154.520000
554.883057	154.800000
554.976624	155.000000
555.070251	154.580000
555.163818	154.380000
555.257507	154.680000
555.351074	154.700000
555.444702	155.840000
555.538330	155.560000
555.631897	156.040000
555.725525	155.840000
555.819092	155.620000
555.912720	153.980000
556.006287	154.640000
556.099915	154.380000
556.193481	154.620000
556.287109	154.960000
556.380676	155.140000
556.474304	155.100000
556.567871	155.400000
556.661499	154.520000
556.755066	154.220000
556.848694	154.500000
556.942261	154.320000
557.035889	154.600000
557.129517	155.160000
557.223145	155.980000
557.316711	155.940000
557.410339	155.760000
557.503906	155.460000
557.597473	155.940000
557.691040	155.300000
557.784668	155.100000
557.878296	155.080000
557.971863	155.300000
558.065491	154.900000
558.159058	154.800000
558.252686	155.760000
558.346252	156.460000
558.439880	155.600000
558.533447	155.560000
558.627075	155.460000
558.720642	154.580000
558.814270	154.080000
558.907837	154.620000
559.001465	154.420000
559.095032	155.060000
559.188660	155.260000
559.282227	154.620000
559.375854	155.040000
559.469360	154.820000
559.562988	154.940000
559.656555	154.940000
559.750183	155.300000
559.843750	155.120000
559.937378	155.140000
560.030945	154.740000
560.124573	0.000000
560.218140	0.000000
560.311707	0.000000
560.405334	0.000000
560.498901	0.000000
560.592529	0.000000
560.686096	0.000000
560.779724	0.000000
560.873291	0.000000
560.966858	0.000000
561.060425	0.000000
561.154053	0.000000
561.247620	0.000000
561.341248	0.000000
561.434814	0.000000
561.528381	0.000000
561.621948	0.000000
561.715576	0.000000
561.809143	0.000000
561.902771	0.000000
561.996277	0.000000
562.089905	0.000000
562.183472	0.000000
562.277100	0.000000
