Model Number: SPM-002-B   
Serial Number: 70087108
Firmware Version: 004.15.4
Exposure Time: 100000.000000us
Data Taken on: 15-01-2021 17:51:08.830
Wavelength	Amplitude
221.570786	0.000000
221.663406	0.000000
221.756027	0.000000
221.848648	0.000000
221.941269	0.000000
222.033905	0.000000
222.126526	0.000000
222.219162	0.000000
222.311798	0.000000
222.404419	0.000000
222.497055	0.000000
222.589676	0.000000
222.682312	0.000000
222.774933	0.000000
222.867569	0.000000
222.960205	0.000000
223.052841	0.000000
223.145462	0.000000
223.238098	0.000000
223.330734	0.000000
223.423386	0.000000
223.516022	0.000000
223.608658	0.000000
223.701309	0.000000
223.793945	0.000000
223.886581	0.000000
223.979218	0.000000
224.071869	0.000000
224.164505	0.000000
224.257156	0.000000
224.349792	0.000000
224.442444	0.000000
224.535095	0.000000
224.627747	0.000000
224.720398	0.000000
224.813034	0.000000
224.905685	0.000000
224.998337	154.380000
225.090988	153.960000
225.183640	154.620000
225.276291	154.440000
225.368942	154.400000
225.461594	155.040000
225.554245	155.460000
225.646912	155.080000
225.739578	155.600000
225.832230	156.260000
225.924896	155.360000
226.017548	155.440000
226.110199	155.900000
226.202866	155.180000
226.295532	154.760000
226.388184	154.740000
226.480850	153.980000
226.573517	153.660000
226.666168	154.100000
226.758835	154.560000
226.851501	155.400000
226.944183	155.520000
227.036850	154.960000
227.129517	154.900000
227.222183	154.880000
227.314850	154.320000
227.407516	155.000000
227.500198	156.020000
227.592865	155.440000
227.685532	154.940000
227.778214	154.940000
227.870880	154.940000
227.963562	155.160000
228.056229	156.100000
228.148926	156.040000
228.241592	156.960000
228.334274	156.560000
228.426956	156.120000
228.519638	155.900000
228.612305	155.600000
228.704987	155.140000
228.797668	155.440000
228.890350	155.180000
228.983032	154.800000
229.075714	155.680000
229.168396	155.180000
229.261108	154.500000
229.353790	154.360000
229.446472	154.500000
229.539169	154.240000
229.631851	154.040000
229.724533	154.260000
229.817230	154.720000
229.909912	155.860000
230.002609	155.620000
230.095306	155.960000
230.187988	156.400000
230.280685	156.140000
230.373383	154.820000
230.466095	154.800000
230.558792	154.820000
230.651474	154.400000
230.744171	153.940000
230.836868	153.880000
230.929581	154.040000
231.022278	154.320000
231.114975	154.400000
231.207672	154.440000
231.300369	155.040000
231.393082	155.260000
231.485779	154.960000
231.578506	155.140000
231.671204	155.660000
231.763916	155.160000
231.856613	155.000000
231.949326	155.180000
232.042023	155.020000
232.134735	154.780000
232.227448	154.840000
232.320160	154.980000
232.412872	154.920000
232.505585	155.640000
232.598297	156.080000
232.691010	155.880000
232.783722	155.540000
232.876450	155.700000
232.969162	155.000000
233.061874	154.180000
233.154587	154.180000
233.247314	154.540000
233.340027	154.140000
233.432739	154.640000
233.525467	154.800000
233.618179	155.200000
233.710907	154.560000
233.803635	154.960000
233.896347	154.560000
233.989090	155.600000
234.081818	155.440000
234.174545	155.700000
234.267258	155.300000
234.359985	155.540000
234.452713	154.980000
234.545441	154.860000
234.638168	154.740000
234.730896	155.200000
234.823639	154.900000
234.916367	155.120000
235.009094	155.320000
235.101822	155.300000
235.194580	155.340000
235.287308	155.360000
235.380051	154.360000
235.472778	154.560000
235.565521	155.000000
235.658249	154.420000
235.750992	154.680000
235.843719	155.160000
235.936462	155.320000
236.029205	154.820000
236.121948	154.480000
236.214691	154.760000
236.307449	155.420000
236.400192	154.800000
236.492935	154.680000
236.585678	155.420000
236.678421	155.040000
236.771164	154.800000
236.863907	155.380000
236.956665	155.920000
237.049408	157.520000
237.142151	156.980000
237.234909	157.680000
237.327652	157.340000
237.420410	157.060000
237.513153	155.780000
237.605927	156.100000
237.698669	155.100000
237.791428	154.560000
237.884186	155.160000
237.976944	154.400000
238.069702	154.740000
238.162445	154.420000
238.255203	155.040000
238.347961	154.920000
238.440720	155.160000
238.533478	155.060000
238.626266	154.920000
238.719025	155.020000
238.811783	154.680000
238.904541	154.500000
238.997314	154.260000
239.090073	154.340000
239.182831	154.560000
239.275604	155.540000
239.368362	155.440000
239.461136	155.520000
239.553909	155.560000
239.646667	155.340000
239.739441	154.760000
239.832214	155.280000
239.925003	155.700000
240.017761	156.620000
240.110535	156.960000
240.203308	156.420000
240.296082	156.520000
240.388855	155.960000
240.481628	155.640000
240.574417	155.920000
240.667191	156.300000
240.759964	155.760000
240.852737	156.020000
240.945526	155.680000
241.038315	155.040000
241.131088	155.000000
241.223877	155.460000
241.316650	155.160000
241.409439	155.580000
241.502228	155.180000
241.595001	155.680000
241.687790	155.260000
241.780579	155.160000
241.873367	155.320000
241.966141	155.800000
242.058929	154.860000
242.151718	155.420000
242.244507	155.880000
242.337311	155.080000
242.430099	155.580000
242.522903	155.840000
242.615692	155.120000
242.708481	154.980000
242.801270	155.420000
242.894073	155.020000
242.986862	155.200000
243.079651	155.940000
243.172455	155.840000
243.265244	156.140000
243.358063	155.700000
243.450867	155.900000
243.543655	155.600000
243.636459	155.680000
243.729263	155.720000
243.822067	155.980000
243.914856	156.180000
244.007660	156.260000
244.100464	156.180000
244.193268	155.540000
244.286072	155.300000
244.378876	154.800000
244.471680	154.540000
244.564499	154.640000
244.657318	155.600000
244.750122	156.020000
244.842926	155.280000
244.935745	155.640000
245.028549	155.360000
245.121368	154.680000
245.214172	154.320000
245.306992	155.000000
245.399796	154.720000
245.492615	154.880000
245.585434	154.820000
245.678253	154.940000
245.771072	155.020000
245.863892	155.520000
245.956711	155.780000
246.049530	155.840000
246.142349	155.720000
246.235168	155.860000
246.327988	155.980000
246.420807	155.560000
246.513626	155.440000
246.606445	155.180000
246.699280	154.880000
246.792099	154.460000
246.884918	154.320000
246.977753	153.860000
247.070587	153.960000
247.163422	154.220000
247.256241	154.180000
247.349075	154.780000
247.441895	155.280000
247.534729	155.360000
247.627563	155.020000
247.720383	155.780000
247.813217	155.460000
247.906052	155.160000
247.998886	155.360000
248.091736	155.260000
248.184570	154.360000
248.277405	154.520000
248.370239	155.560000
248.463074	156.440000
248.555908	156.940000
248.648743	156.900000
248.741592	156.920000
248.834427	156.280000
248.927261	154.800000
249.020111	155.200000
249.112946	156.100000
249.205795	155.660000
249.298630	155.740000
249.391495	156.380000
249.484344	155.820000
249.577179	155.600000
249.670029	156.240000
249.762878	156.520000
249.855728	156.540000
249.948563	156.740000
250.041412	156.060000
250.134262	155.800000
250.227112	155.560000
250.319962	155.300000
250.412827	155.120000
250.505692	154.780000
250.598541	155.000000
250.691391	154.780000
250.784241	154.880000
250.877106	154.940000
250.969955	155.140000
251.062805	155.540000
251.155670	156.240000
251.248520	156.120000
251.341385	156.560000
251.434235	156.460000
251.527100	155.760000
251.619965	154.980000
251.712814	155.780000
251.805695	155.580000
251.898560	155.900000
251.991425	156.360000
252.084290	156.420000
252.177155	155.440000
252.270020	155.160000
252.362885	155.080000
252.455750	155.080000
252.548615	155.020000
252.641479	155.100000
252.734360	154.860000
252.827240	154.560000
252.920105	154.460000
253.012970	154.480000
253.105850	154.580000
253.198715	154.520000
253.291595	154.880000
253.384460	154.200000
253.477341	154.220000
253.570221	154.700000
253.663086	154.700000
253.755966	155.340000
253.848846	155.700000
253.941727	155.920000
254.034592	155.360000
254.127472	155.140000
254.220367	154.960000
254.313248	155.120000
254.406128	154.720000
254.499008	155.240000
254.591904	156.020000
254.684784	156.180000
254.777664	156.200000
254.870544	156.000000
254.963440	155.900000
255.056335	155.680000
255.149216	155.280000
255.242111	155.640000
255.334991	155.960000
255.427887	155.940000
255.520767	156.080000
255.613663	156.360000
255.706558	155.480000
255.799438	155.580000
255.892334	155.240000
255.985229	155.120000
256.078125	154.580000
256.171021	154.920000
256.263916	155.100000
256.356812	155.420000
256.449707	155.520000
256.542603	155.520000
256.635498	156.260000
256.728394	155.940000
256.821289	155.360000
256.914215	155.500000
257.007080	155.640000
257.100006	155.240000
257.192932	156.000000
257.285828	156.420000
257.378723	155.880000
257.471619	155.780000
257.564545	155.380000
257.657440	155.080000
257.750336	155.740000
257.843262	155.880000
257.936157	157.020000
258.029053	157.440000
258.121979	157.280000
258.214874	156.540000
258.307800	156.140000
258.400696	155.060000
258.493622	154.660000
258.586517	153.900000
258.679443	154.320000
258.772339	154.120000
258.865265	153.960000
258.958160	153.780000
259.051086	155.180000
259.144012	155.020000
259.236938	156.200000
259.329834	156.400000
259.422791	156.500000
259.515717	155.300000
259.608612	155.020000
259.701538	154.620000
259.794464	154.620000
259.887390	154.640000
259.980316	154.880000
260.073212	154.900000
260.166138	154.140000
260.259064	154.620000
260.351990	155.320000
260.444916	155.300000
260.537842	155.580000
260.630768	156.500000
260.723694	156.340000
260.816620	156.040000
260.909546	155.820000
261.002472	155.680000
261.095398	154.960000
261.188354	154.580000
261.281281	153.800000
261.374207	154.380000
261.467133	154.900000
261.560089	155.160000
261.653015	155.000000
261.745972	156.260000
261.838867	156.600000
261.931824	157.100000
262.024780	156.880000
262.117706	157.280000
262.210663	156.960000
262.303589	156.420000
262.396515	155.780000
262.489471	156.880000
262.582397	156.560000
262.675354	156.000000
262.768280	156.040000
262.861237	155.980000
262.954163	155.660000
263.047119	156.020000
263.140045	155.880000
263.233002	155.960000
263.325958	155.720000
263.418884	154.800000
263.511841	154.580000
263.604797	154.860000
263.697723	154.760000
263.790680	154.640000
263.883636	155.660000
263.976593	155.720000
264.069550	155.900000
264.162476	155.740000
264.255463	155.740000
264.348419	155.100000
264.441376	155.340000
264.534332	154.720000
264.627289	155.040000
264.720245	155.780000
264.813202	155.420000
264.906158	155.560000
264.999115	156.340000
265.092072	156.340000
265.185028	156.540000
265.277985	157.080000
265.370941	156.560000
265.463898	156.200000
265.556854	155.660000
265.649811	154.440000
265.742798	154.140000
265.835754	154.380000
265.928711	154.740000
266.021667	155.280000
266.114655	155.920000
266.207611	156.080000
266.300568	155.940000
266.393585	155.440000
266.486511	155.340000
266.579498	154.460000
266.672485	154.440000
266.765442	153.920000
266.858429	154.260000
266.951385	154.220000
267.044342	154.660000
267.137329	154.960000
267.230316	155.540000
267.323273	155.240000
267.416260	155.660000
267.509216	155.600000
267.602203	155.380000
267.695160	155.940000
267.788147	155.960000
267.881134	155.340000
267.974091	155.860000
268.067078	155.640000
268.160065	154.820000
268.253052	154.700000
268.346008	155.020000
268.438995	154.740000
268.531982	154.900000
268.624969	155.040000
268.717987	155.580000
268.810944	155.300000
268.903961	155.400000
268.996948	155.080000
269.089905	155.560000
269.182892	155.400000
269.275879	155.760000
269.368866	155.260000
269.461853	155.860000
269.554871	155.780000
269.647858	155.720000
269.740845	155.920000
269.833832	156.480000
269.926819	155.960000
270.019806	155.800000
270.112793	155.440000
270.205811	155.440000
270.298798	154.880000
270.391785	155.440000
270.484772	155.100000
270.577789	155.280000
270.670776	154.660000
270.763763	154.660000
270.856750	154.740000
270.949768	154.600000
271.042786	154.640000
271.135773	154.940000
271.228790	155.740000
271.321808	154.920000
271.414795	154.620000
271.507782	154.500000
271.600800	154.220000
271.693817	153.820000
271.786804	154.380000
271.879822	154.960000
271.972809	154.740000
272.065826	155.200000
272.158844	154.880000
272.251831	155.620000
272.344849	155.260000
272.437866	155.200000
272.530853	155.080000
272.623871	155.560000
272.716888	154.040000
272.809906	154.420000
272.902893	154.320000
272.995911	153.760000
273.088928	153.560000
273.181946	154.280000
273.274963	153.960000
273.367981	154.500000
273.460999	154.840000
273.554047	155.100000
273.647003	155.720000
273.740051	156.040000
273.833069	156.200000
273.926086	156.640000
274.019135	156.280000
274.112152	155.680000
274.205170	155.660000
274.298187	155.800000
274.391205	155.160000
274.484222	155.220000
274.577240	155.280000
274.670258	155.260000
274.763306	154.900000
274.856323	155.540000
274.949341	155.660000
275.042358	155.920000
275.135406	155.660000
275.228424	155.660000
275.321442	155.280000
275.414490	155.160000
275.507507	155.320000
275.600525	155.820000
275.693573	155.800000
275.786591	155.580000
275.879669	155.740000
275.972656	155.360000
276.065735	155.140000
276.158752	155.480000
276.251801	156.280000
276.344818	156.480000
276.437866	156.480000
276.530884	156.140000
276.623932	155.680000
276.716980	155.300000
276.809998	155.240000
276.903046	155.040000
276.996094	156.500000
277.089111	156.980000
277.182159	157.480000
277.275208	157.100000
277.368256	157.300000
277.461304	156.580000
277.554321	155.900000
277.647369	155.740000
277.740417	156.020000
277.833466	155.780000
277.926514	155.400000
278.019562	156.360000
278.112610	155.380000
278.205688	155.080000
278.298706	155.320000
278.391785	155.040000
278.484833	154.140000
278.577881	154.360000
278.670929	155.080000
278.763977	155.160000
278.857025	155.540000
278.950073	155.560000
279.043121	155.540000
279.136169	154.860000
279.229248	154.460000
279.322296	154.380000
279.415344	154.320000
279.508392	154.360000
279.601440	154.340000
279.694519	154.180000
279.787567	154.020000
279.880615	153.820000
279.973694	153.860000
280.066742	153.960000
280.159790	154.240000
280.252869	153.860000
280.345917	154.440000
280.438995	154.540000
280.532074	154.440000
280.625122	154.800000
280.718201	156.040000
280.811279	155.880000
280.904327	155.920000
280.997406	156.200000
281.090454	156.100000
281.183533	155.440000
281.276581	155.320000
281.369659	154.860000
281.462738	154.860000
281.555786	154.780000
281.648865	154.840000
281.741943	154.920000
281.835022	155.680000
281.928070	155.180000
282.021149	154.940000
282.114227	154.500000
282.207306	154.540000
282.300385	154.700000
282.393433	155.160000
282.486511	155.520000
282.579590	156.340000
282.672668	156.640000
282.765747	156.220000
282.858856	155.800000
282.951904	155.840000
283.045013	155.340000
283.138062	155.480000
283.231171	155.620000
283.324249	156.380000
283.417328	156.660000
283.510406	156.600000
283.603485	156.380000
283.696564	156.360000
283.789642	155.840000
283.882751	155.080000
283.975830	155.680000
284.068909	155.120000
284.161987	155.560000
284.255066	155.100000
284.348175	155.660000
284.441254	155.240000
284.534332	155.720000
284.627441	154.860000
284.720520	154.880000
284.813599	154.480000
284.906708	154.720000
284.999786	154.020000
285.092896	154.100000
285.185974	155.240000
285.279053	154.900000
285.372192	154.660000
285.465240	155.960000
285.558380	155.900000
285.651459	155.360000
285.744568	156.380000
285.837677	156.040000
285.930756	155.840000
286.023865	156.060000
286.116943	155.300000
286.210052	155.260000
286.303162	155.300000
286.396240	154.980000
286.489349	154.760000
286.582458	155.520000
286.675568	155.180000
286.768646	155.480000
286.861755	155.460000
286.954865	156.240000
287.047974	155.800000
287.141083	155.420000
287.234161	155.100000
287.327271	155.200000
287.420380	155.580000
287.513519	155.560000
287.606598	155.840000
287.699738	156.220000
287.792816	155.900000
287.885956	155.300000
287.979034	155.480000
288.072174	155.340000
288.165283	154.960000
288.258392	155.400000
288.351501	154.740000
288.444611	154.980000
288.537720	155.500000
288.630859	155.240000
288.723969	155.560000
288.817078	156.420000
288.910187	156.160000
289.003296	155.460000
289.096436	155.700000
289.189545	155.060000
289.282654	154.340000
289.375763	154.800000
289.468903	155.260000
289.562012	155.440000
289.655121	155.340000
289.748260	155.620000
289.841400	155.820000
289.934509	155.680000
290.027649	155.940000
290.120728	156.000000
290.213898	156.140000
290.306976	155.460000
290.400146	155.780000
290.493256	155.220000
290.586395	155.260000
290.679535	155.180000
290.772644	155.200000
290.865784	154.020000
290.958893	154.300000
291.052032	154.100000
291.145172	154.100000
291.238281	153.960000
291.331421	154.540000
291.424561	154.940000
291.517670	155.200000
291.610809	155.340000
291.703949	155.120000
291.797089	155.380000
291.890228	154.800000
291.983337	154.820000
292.076477	154.520000
292.169617	155.200000
292.262756	155.040000
292.355927	154.940000
292.449036	154.660000
292.542206	154.940000
292.635315	154.780000
292.728485	155.080000
292.821625	155.060000
292.914764	156.060000
293.007904	156.060000
293.101044	156.220000
293.194183	155.980000
293.287323	156.120000
293.380463	155.520000
293.473602	155.300000
293.566742	155.220000
293.659882	155.840000
293.753021	156.160000
293.846191	155.860000
293.939331	155.600000
294.032471	155.280000
294.125610	154.600000
294.218781	154.600000
294.311920	154.940000
294.405060	155.080000
294.498230	155.300000
294.591370	155.420000
294.684540	155.000000
294.777679	154.580000
294.870850	154.980000
294.963959	154.980000
295.057159	154.720000
295.150299	155.120000
295.243469	155.320000
295.336609	154.860000
295.429779	154.900000
295.522919	155.560000
295.616089	155.320000
295.709229	156.000000
295.802399	156.180000
295.895569	156.040000
295.988708	155.500000
296.081879	155.520000
296.175018	154.820000
296.268188	154.720000
296.361359	155.280000
296.454529	155.460000
296.547668	155.580000
296.640839	155.800000
296.734009	155.580000
296.827179	155.620000
296.920319	156.020000
297.013519	155.440000
297.106659	155.260000
297.199860	155.180000
297.292999	154.720000
297.386200	154.340000
297.479309	154.540000
297.572510	154.780000
297.665680	154.600000
297.758850	154.620000
297.852020	154.400000
297.945190	154.340000
298.038361	153.860000
298.131531	154.980000
298.224701	154.780000
298.317871	154.360000
298.411072	154.320000
298.504242	154.340000
298.597412	153.840000
298.690582	154.060000
298.783752	154.660000
298.876923	155.220000
298.970093	155.300000
299.063293	155.660000
299.156464	156.040000
299.249634	156.300000
299.342834	156.180000
299.436005	156.320000
299.529205	155.780000
299.622345	155.560000
299.715576	154.680000
299.808716	154.800000
299.901917	154.760000
299.995117	155.340000
300.088287	155.220000
300.181488	155.420000
300.274658	155.060000
300.367828	155.380000
300.461029	155.080000
300.554199	155.480000
300.647400	155.800000
300.740601	156.340000
300.833771	155.660000
300.926971	155.760000
301.020142	155.160000
301.113342	154.720000
301.206512	154.660000
301.299713	155.280000
301.392914	155.440000
301.486084	155.740000
301.579285	156.020000
301.672516	156.180000
301.765686	155.660000
301.858887	155.360000
301.952057	155.360000
302.045288	155.360000
302.138458	155.260000
302.231659	155.600000
302.324860	155.500000
302.418060	155.240000
302.511261	155.360000
302.604462	155.500000
302.697662	155.000000
302.790863	154.900000
302.884064	154.200000
302.977264	154.140000
303.070465	154.160000
303.163666	155.100000
303.256866	155.520000
303.350067	156.080000
303.443268	156.180000
303.536469	156.180000
303.629669	155.500000
303.722870	155.160000
303.816071	154.900000
303.909271	154.900000
304.002472	153.800000
304.095673	153.680000
304.188934	153.180000
304.282104	154.280000
304.375336	154.340000
304.468506	154.680000
304.561768	154.600000
304.654968	155.460000
304.748169	154.620000
304.841370	154.320000
304.934601	154.840000
305.027802	154.920000
305.121002	154.320000
305.214233	154.640000
305.307434	154.600000
305.400665	155.040000
305.493866	154.900000
305.587097	155.400000
305.680298	155.300000
305.773499	156.000000
305.866730	155.580000
305.959930	156.440000
306.053162	156.740000
306.146393	156.520000
306.239594	155.520000
306.332825	155.540000
306.426025	155.560000
306.519287	154.680000
306.612488	154.740000
306.705719	155.220000
306.798920	155.220000
306.892181	154.280000
306.985352	154.200000
307.078613	153.840000
307.171844	154.160000
307.265045	153.680000
307.358276	153.700000
307.451508	154.140000
307.544739	154.820000
307.637970	154.100000
307.731201	154.140000
307.824402	154.800000
307.917633	155.100000
308.010864	155.340000
308.104095	156.000000
308.197327	156.200000
308.290558	156.100000
308.383789	155.660000
308.477020	155.120000
308.570251	154.680000
308.663483	154.120000
308.756714	153.820000
308.849976	154.020000
308.943176	154.500000
309.036438	154.380000
309.129639	154.520000
309.222900	154.660000
309.316101	154.380000
309.409393	153.860000
309.502625	153.860000
309.595856	154.260000
309.689087	154.380000
309.782318	154.560000
309.875580	154.880000
309.968811	155.080000
310.062042	154.640000
310.155273	154.560000
310.248535	154.760000
310.341766	154.560000
310.434998	154.300000
310.528259	154.540000
310.621490	154.840000
310.714722	154.240000
310.807983	154.220000
310.901215	154.340000
310.994476	154.300000
311.087708	153.860000
311.181000	154.200000
311.274200	153.960000
311.367462	154.100000
311.460693	154.180000
311.553986	155.140000
311.647186	155.520000
311.740479	156.240000
311.833710	155.840000
311.926971	155.980000
312.020203	155.220000
312.113464	154.960000
312.206726	154.420000
312.299957	154.840000
312.393219	155.120000
312.486481	155.280000
312.579712	154.960000
312.672974	155.100000
312.766235	155.080000
312.859497	154.980000
312.952759	154.520000
313.045990	155.600000
313.139252	155.020000
313.232513	155.240000
313.325775	155.180000
313.419037	155.160000
313.512299	153.940000
313.605530	155.020000
313.698822	155.180000
313.792053	155.320000
313.885345	155.040000
313.978577	155.220000
314.071869	154.400000
314.165131	154.360000
314.258392	154.380000
314.351654	154.720000
314.444916	154.440000
314.538177	155.220000
314.631439	155.420000
314.724701	155.420000
314.817993	155.140000
314.911255	155.660000
315.004517	154.980000
315.097778	154.520000
315.191040	154.760000
315.284302	155.280000
315.377594	154.840000
315.470856	154.820000
315.564117	154.360000
315.657379	153.500000
315.750671	152.940000
315.843933	153.660000
315.937195	153.340000
316.030518	153.080000
316.123749	153.460000
316.217041	154.460000
316.310303	154.220000
316.403595	154.840000
316.496857	155.460000
316.590149	155.760000
316.683411	155.100000
316.776703	154.720000
316.869965	154.700000
316.963257	154.680000
317.056519	153.680000
317.149811	153.360000
317.243073	153.760000
317.336365	153.480000
317.429626	153.900000
317.522919	155.080000
317.616180	155.400000
317.709473	154.860000
317.802765	155.040000
317.896027	154.560000
317.989319	154.540000
318.082611	154.520000
318.175873	154.480000
318.269165	154.580000
318.362488	154.840000
318.455750	154.220000
318.549042	154.600000
318.642303	155.420000
318.735626	154.880000
318.828888	154.900000
318.922211	154.640000
319.015472	154.980000
319.108765	153.860000
319.202057	153.620000
319.295349	153.760000
319.388641	153.820000
319.481934	153.360000
319.575226	153.740000
319.668518	154.480000
319.761810	154.420000
319.855103	154.820000
319.948395	154.920000
320.041687	155.080000
320.134979	155.020000
320.228271	154.740000
320.321564	154.280000
320.414856	153.900000
320.508148	153.560000
320.601440	153.640000
320.694763	153.480000
320.788025	154.460000
320.881348	154.540000
320.974640	154.920000
321.067963	154.000000
321.161224	154.500000
321.254547	153.840000
321.347839	154.620000
321.441162	154.200000
321.534454	154.660000
321.627747	154.120000
321.721069	154.760000
321.814362	154.600000
321.907654	155.180000
322.000946	155.300000
322.094269	156.220000
322.187561	155.700000
322.280884	155.900000
322.374176	155.820000
322.467468	156.400000
322.560791	155.900000
322.654083	156.540000
322.747406	156.640000
322.840698	156.960000
322.934021	157.200000
323.027344	157.580000
323.120636	157.080000
323.213959	156.360000
323.307251	155.760000
323.400574	154.780000
323.493866	153.860000
323.587219	153.920000
323.680511	154.500000
323.773834	154.720000
323.867157	155.120000
323.960449	155.740000
324.053772	155.380000
324.147095	155.000000
324.240387	155.540000
324.333710	155.520000
324.427032	155.260000
324.520355	155.280000
324.613647	154.880000
324.706970	154.220000
324.800293	154.100000
324.893616	154.420000
324.986938	154.540000
325.080231	154.460000
325.173553	154.920000
325.266876	155.500000
325.360199	155.540000
325.453522	155.160000
325.546875	154.820000
325.640167	154.840000
325.733521	154.680000
325.826813	154.700000
325.920166	155.040000
326.013489	155.260000
326.106812	154.460000
326.200134	153.680000
326.293457	153.080000
326.386780	152.800000
326.480103	152.700000
326.573425	152.800000
326.666748	153.280000
326.760071	153.740000
326.853424	154.120000
326.946747	154.320000
327.040070	155.140000
327.133392	154.760000
327.226715	154.020000
327.320068	153.520000
327.413391	154.220000
327.506714	153.320000
327.600037	153.600000
327.693390	153.900000
327.786713	154.080000
327.880066	153.620000
327.973358	154.460000
328.066742	154.880000
328.160034	155.360000
328.253418	155.680000
328.346710	155.600000
328.440063	155.000000
328.533417	154.520000
328.626740	154.520000
328.720093	154.300000
328.813416	154.100000
328.906769	154.200000
329.000092	154.740000
329.093445	154.640000
329.186768	154.440000
329.280121	154.960000
329.373444	155.140000
329.466797	154.880000
329.560120	155.160000
329.653473	155.240000
329.746796	154.820000
329.840149	154.860000
329.933502	154.840000
330.026825	154.500000
330.120178	154.500000
330.213562	154.280000
330.306854	154.160000
330.400238	154.300000
330.493561	154.020000
330.586945	154.600000
330.680237	155.160000
330.773621	155.080000
330.866974	154.820000
330.960327	155.060000
331.053680	154.820000
331.147003	155.140000
331.240356	155.480000
331.333710	155.340000
331.427063	155.300000
331.520416	155.080000
331.613770	154.720000
331.707123	154.600000
331.800476	155.060000
331.893829	155.920000
331.987152	155.960000
332.080505	156.160000
332.173859	156.020000
332.267212	155.260000
332.360565	154.480000
332.453918	154.280000
332.547333	153.860000
332.640656	153.720000
332.734039	154.380000
332.827362	154.200000
332.920746	154.400000
333.014069	154.680000
333.107452	155.420000
333.200806	155.340000
333.294159	155.540000
333.387543	155.260000
333.480896	154.680000
333.574249	154.100000
333.667603	153.380000
333.760956	153.500000
333.854340	153.680000
333.947693	153.940000
334.041046	154.160000
334.134430	155.000000
334.227783	154.920000
334.321136	154.920000
334.414520	154.640000
334.507874	154.640000
334.601227	154.540000
334.694611	154.300000
334.787964	154.320000
334.881348	154.660000
334.974701	154.380000
335.068085	153.700000
335.161438	154.000000
335.254822	153.840000
335.348175	154.220000
335.441559	154.140000
335.534943	155.140000
335.628296	154.840000
335.721680	155.020000
335.815033	154.720000
335.908417	154.680000
336.001770	154.560000
336.095154	154.800000
336.188538	154.600000
336.281891	154.020000
336.375275	153.860000
336.468658	153.120000
336.562012	153.100000
336.655396	153.540000
336.748779	154.220000
336.842133	154.540000
336.935516	155.400000
337.028900	154.920000
337.122284	154.660000
337.215637	154.900000
337.309021	154.880000
337.402435	154.020000
337.495789	153.860000
337.589203	153.880000
337.682526	153.420000
337.775940	153.640000
337.869324	153.900000
337.962708	154.080000
338.056091	154.420000
338.149475	154.020000
338.242859	153.960000
338.336243	153.940000
338.429626	154.240000
338.523010	153.900000
338.616394	154.060000
338.709778	154.000000
338.803162	154.400000
338.896545	154.540000
338.989929	154.120000
339.083313	154.480000
339.176697	154.180000
339.270081	153.880000
339.363464	154.020000
339.456848	154.700000
339.550232	154.240000
339.643616	154.560000
339.737030	154.620000
339.830383	154.260000
339.923828	154.280000
340.017181	154.580000
340.110596	154.440000
340.203949	154.140000
340.297363	153.820000
340.390778	153.740000
340.484161	153.540000
340.577545	153.760000
340.670959	154.200000
340.764343	154.420000
340.857727	154.480000
340.951111	154.180000
341.044525	154.060000
341.137909	153.260000
341.231293	153.180000
341.324707	152.760000
341.418091	153.680000
341.511505	153.780000
341.604889	154.560000
341.698303	155.100000
341.791687	155.220000
341.885071	154.680000
341.978485	154.220000
342.071899	154.180000
342.165283	154.240000
342.258698	154.620000
342.352081	155.020000
342.445496	155.800000
342.538879	155.740000
342.632324	155.220000
342.725708	154.960000
342.819122	154.340000
342.912506	153.820000
343.005920	153.660000
343.099335	154.560000
343.192719	154.580000
343.286133	155.100000
343.379547	155.320000
343.472931	155.540000
343.566345	154.860000
343.659760	155.060000
343.753143	154.800000
343.846558	154.600000
343.939972	154.660000
344.033386	154.920000
344.126770	154.940000
344.220184	155.360000
344.313599	155.760000
344.407043	155.920000
344.500427	155.760000
344.593872	156.220000
344.687225	155.920000
344.780670	155.500000
344.874054	155.340000
344.967499	155.560000
345.060913	155.200000
345.154327	154.900000
345.247742	154.800000
345.341156	154.340000
345.434570	154.000000
345.527985	153.840000
345.621399	154.220000
345.714813	154.300000
345.808228	154.780000
345.901642	154.560000
345.995056	153.920000
346.088470	154.140000
346.181885	154.480000
346.275299	154.300000
346.368713	154.320000
346.462128	154.580000
346.555573	154.300000
346.648987	154.160000
346.742401	154.100000
346.835815	154.580000
346.929260	154.420000
347.022644	154.400000
347.116119	154.340000
347.209503	154.800000
347.302948	155.300000
347.396362	155.760000
347.489807	156.000000
347.583221	156.680000
347.676636	156.220000
347.770050	155.100000
347.863495	154.520000
347.956909	154.500000
348.050323	153.540000
348.143768	153.680000
348.237183	153.920000
348.330597	154.640000
348.424042	154.820000
348.517456	155.560000
348.610901	155.760000
348.704315	155.780000
348.797760	155.340000
348.891174	154.600000
348.984619	153.880000
349.078033	153.860000
349.171448	154.480000
349.264923	154.180000
349.358337	154.260000
349.451782	154.360000
349.545197	153.720000
349.638641	153.060000
349.732086	153.040000
349.825500	153.580000
349.918945	153.440000
350.012390	154.000000
350.105804	154.440000
350.199249	154.760000
350.292664	155.200000
350.386108	155.560000
350.479553	156.180000
350.572968	156.060000
350.666412	155.920000
350.759857	155.320000
350.853302	155.580000
350.946716	154.380000
351.040161	154.360000
351.133606	154.660000
351.227081	154.400000
351.320465	154.660000
351.413940	155.100000
351.507355	154.800000
351.600830	154.860000
351.694244	154.700000
351.787720	154.420000
351.881104	154.460000
351.974579	154.500000
352.067993	155.200000
352.161469	155.420000
352.254883	154.820000
352.348358	154.660000
352.441803	154.860000
352.535248	154.060000
352.628693	154.820000
352.722137	154.840000
352.815582	155.380000
352.909027	155.660000
353.002472	155.680000
353.095917	154.800000
353.189362	155.080000
353.282806	154.500000
353.376251	154.060000
353.469696	153.640000
353.563141	154.260000
353.656586	154.060000
353.750061	153.720000
353.843475	153.460000
353.936981	154.260000
354.030396	153.860000
354.123871	154.140000
354.217285	155.520000
354.310760	155.800000
354.404175	155.500000
354.497681	155.260000
354.591095	154.880000
354.684570	153.380000
354.777985	153.200000
354.871490	152.740000
354.964935	153.100000
355.058380	153.420000
355.151855	153.440000
355.245300	154.200000
355.338745	154.840000
355.432220	154.940000
355.525665	154.280000
355.619110	154.940000
355.712585	154.440000
355.806030	154.180000
355.899475	153.740000
355.992950	154.700000
356.086426	155.020000
356.179871	155.060000
356.273346	155.040000
356.366791	155.440000
356.460266	155.320000
356.553711	154.480000
356.647186	154.480000
356.740631	154.340000
356.834106	154.020000
356.927551	154.280000
357.021027	154.660000
357.114471	154.600000
357.207947	154.820000
357.301422	155.320000
357.394867	155.120000
357.488342	155.020000
357.581818	155.200000
357.675262	155.200000
357.768738	154.800000
357.862213	154.200000
357.955658	154.620000
358.049133	154.180000
358.142609	154.280000
358.236053	154.100000
358.329529	154.480000
358.423035	154.780000
358.516449	154.920000
358.609955	155.180000
358.703400	155.840000
358.796906	155.660000
358.890350	154.680000
358.983826	155.080000
359.077271	154.580000
359.170776	154.160000
359.264221	154.080000
359.357727	154.720000
359.451172	154.780000
359.544647	154.820000
359.638123	154.800000
359.731598	155.280000
359.825073	155.320000
359.918549	155.400000
360.012024	155.580000
360.105499	154.920000
360.198975	154.700000
360.292450	154.620000
360.385925	154.380000
360.479401	153.960000
360.572876	154.560000
360.666351	154.860000
360.759857	154.700000
360.853302	154.560000
360.946808	154.220000
361.040253	154.480000
361.133759	154.120000
361.227203	154.340000
361.320709	153.920000
361.414154	154.760000
361.507660	154.940000
361.601105	155.480000
361.694641	156.020000
361.788086	156.120000
361.881592	156.400000
361.975067	155.980000
362.068542	155.900000
362.162018	155.420000
362.255524	155.280000
362.348999	154.960000
362.442474	155.300000
362.535950	154.840000
362.629456	154.560000
362.722931	154.580000
362.816406	154.960000
362.909882	155.100000
363.003387	154.820000
363.096863	155.440000
363.190338	155.700000
363.283875	155.160000
363.377319	154.820000
363.470825	155.520000
363.564301	154.560000
363.657806	154.840000
363.751282	154.360000
363.844788	155.440000
363.938232	155.000000
364.031769	155.960000
364.125214	155.920000
364.218750	156.980000
364.312225	155.360000
364.405731	155.300000
364.499207	154.600000
364.592712	154.280000
364.686188	153.580000
364.779694	154.160000
364.873169	154.480000
364.966675	154.480000
365.060150	154.260000
365.153656	155.220000
365.247131	155.160000
365.340637	155.160000
365.434143	155.340000
365.527618	156.140000
365.621155	154.960000
365.714600	155.160000
365.808136	155.160000
365.901611	154.460000
365.995117	153.660000
366.088593	154.120000
366.182129	153.900000
366.275604	153.980000
366.369110	154.420000
366.462585	154.740000
366.556122	155.040000
366.649567	154.920000
366.743103	154.920000
366.836609	154.740000
366.930115	155.120000
367.023590	155.100000
367.117096	155.300000
367.210602	154.980000
367.304108	155.840000
367.397614	156.260000
367.491119	156.220000
367.584595	156.120000
367.678101	156.800000
367.771606	156.400000
367.865112	155.580000
367.958649	155.000000
368.052124	154.740000
368.145660	154.180000
368.239136	154.600000
368.332672	154.840000
368.426147	155.220000
368.519684	155.380000
368.613159	155.780000
368.706696	155.360000
368.800171	155.180000
368.893707	155.140000
368.987183	155.120000
369.080719	154.860000
369.174225	154.320000
369.267731	154.440000
369.361237	154.520000
369.454742	154.540000
369.548248	154.820000
369.641754	154.840000
369.735260	154.740000
369.828766	153.800000
369.922272	154.640000
370.015808	154.020000
370.109314	154.120000
370.202820	153.820000
370.296356	155.000000
370.389832	154.460000
370.483368	154.200000
370.576874	154.240000
370.670410	154.800000
370.763885	153.880000
370.857422	153.960000
370.950928	154.100000
371.044464	154.880000
371.137939	154.900000
371.231476	155.300000
371.324982	155.520000
371.418518	156.120000
371.512024	155.840000
371.605560	155.380000
371.699066	155.760000
371.792572	155.100000
371.886108	155.340000
371.979614	155.060000
372.073120	155.580000
372.166656	155.280000
372.260162	155.480000
372.353668	155.000000
372.447205	154.620000
372.540710	154.520000
372.634277	154.360000
372.727753	154.660000
372.821320	154.800000
372.914795	155.060000
373.008362	154.720000
373.101837	155.120000
373.195404	154.840000
373.288879	154.660000
373.382446	155.100000
373.475922	155.180000
373.569489	155.580000
373.662964	155.960000
373.756531	155.860000
373.850037	155.700000
373.943573	155.460000
374.037109	154.280000
374.130615	154.460000
374.224152	154.320000
374.317657	154.140000
374.411194	155.460000
374.504730	155.680000
374.598236	155.100000
374.691772	154.980000
374.785309	155.260000
374.878815	153.660000
374.972351	154.080000
375.065887	153.880000
375.159454	154.700000
375.252930	154.320000
375.346497	155.080000
375.440002	155.600000
375.533569	155.560000
375.627045	154.920000
375.720612	154.920000
375.814117	155.200000
375.907684	154.380000
376.001160	154.460000
376.094727	154.180000
376.188232	154.760000
376.281799	154.640000
376.375336	154.760000
376.468872	155.340000
376.562408	155.760000
376.655914	155.300000
376.749451	155.320000
376.842987	155.480000
376.936523	155.200000
377.030060	155.200000
377.123596	155.400000
377.217133	154.780000
377.310669	154.820000
377.404205	154.900000
377.497772	155.420000
377.591278	155.240000
377.684845	156.020000
377.778351	156.240000
377.871918	155.840000
377.965424	154.920000
378.058990	154.800000
378.152496	154.320000
378.246063	154.000000
378.339569	154.520000
378.433136	154.940000
378.526642	154.900000
378.620209	155.000000
378.713745	154.960000
378.807312	155.240000
378.900848	155.080000
378.994385	155.700000
379.087921	154.820000
379.181458	154.880000
379.274994	154.140000
379.368530	153.900000
379.462097	153.740000
379.555634	154.620000
379.649170	154.280000
379.742706	154.340000
379.836273	154.720000
379.929810	154.360000
380.023376	154.220000
380.116882	154.420000
380.210449	154.100000
380.303986	153.720000
380.397552	153.300000
380.491058	153.400000
380.584656	153.140000
380.678162	153.640000
380.771729	153.800000
380.865265	154.680000
380.958832	154.820000
381.052368	155.200000
381.145935	155.340000
381.239471	155.740000
381.333008	155.540000
381.426575	155.240000
381.520111	155.500000
381.613647	155.740000
381.707214	155.440000
381.800751	155.060000
381.894318	155.140000
381.987854	154.320000
382.081421	153.560000
382.174988	153.740000
382.268524	153.720000
382.362091	153.780000
382.455627	155.140000
382.549194	155.100000
382.642731	154.520000
382.736298	154.520000
382.829834	154.560000
382.923401	154.680000
383.016937	155.200000
383.110504	155.740000
383.204041	155.940000
383.297607	156.280000
383.391174	155.220000
383.484741	155.660000
383.578278	155.180000
383.671844	154.720000
383.765411	153.900000
383.858948	154.580000
383.952515	154.280000
384.046051	154.980000
384.139618	155.580000
384.233185	156.340000
384.326721	155.980000
384.420288	156.340000
384.513855	155.820000
384.607422	156.040000
384.700989	155.940000
384.794525	155.440000
384.888123	155.180000
384.981659	155.560000
385.075226	155.040000
385.168762	154.500000
385.262360	154.920000
385.355896	154.060000
385.449463	153.740000
385.542999	154.020000
385.636597	154.760000
385.730164	154.700000
385.823730	154.520000
385.917267	154.240000
386.010834	154.320000
386.104401	153.940000
386.197968	154.280000
386.291534	154.900000
386.385101	154.980000
386.478668	155.200000
386.572235	155.260000
386.665802	154.720000
386.759338	154.360000
386.852905	154.460000
386.946472	153.980000
387.040070	154.080000
387.133606	154.240000
387.227203	154.580000
387.320740	154.880000
387.414337	154.460000
387.507874	154.380000
387.601471	154.560000
387.695007	154.200000
387.788605	153.960000
387.882141	154.460000
387.975739	154.500000
388.069275	154.160000
388.162872	154.540000
388.256439	154.660000
388.350037	154.300000
388.443604	153.800000
388.537170	153.740000
388.630737	154.340000
388.724304	154.720000
388.817871	154.780000
388.911438	155.200000
389.005005	155.780000
389.098602	155.560000
389.192169	154.980000
389.285736	155.740000
389.379333	155.260000
389.472870	154.520000
389.566467	154.380000
389.660034	154.220000
389.753632	153.180000
389.847168	153.920000
389.940765	154.340000
390.034332	154.600000
390.127930	154.540000
390.221466	154.920000
390.315063	154.420000
390.408630	153.840000
390.502228	152.660000
390.595795	152.960000
390.689362	153.160000
390.782959	153.340000
390.876526	154.260000
390.970093	154.600000
391.063690	155.020000
391.157257	154.960000
391.250824	155.420000
391.344421	154.760000
391.437988	155.320000
391.531555	155.220000
391.625153	155.040000
391.718750	154.860000
391.812317	155.020000
391.905914	154.640000
391.999481	154.780000
392.093079	154.900000
392.186615	155.320000
392.280243	155.360000
392.373779	155.600000
392.467407	155.920000
392.560944	155.880000
392.654572	155.180000
392.748108	155.040000
392.841736	155.060000
392.935303	153.920000
393.028900	153.820000
393.122467	153.960000
393.216064	153.760000
393.309631	153.160000
393.403229	153.420000
393.496796	153.280000
393.590393	152.300000
393.683990	152.540000
393.777557	153.600000
393.871155	153.840000
393.964722	154.720000
394.058350	155.460000
394.151917	155.300000
394.245514	154.720000
394.339081	155.260000
394.432678	154.920000
394.526245	154.860000
394.619873	154.600000
394.713409	154.900000
394.807037	154.100000
394.900604	154.360000
394.994202	154.580000
395.087769	155.140000
395.181396	154.260000
395.274994	155.280000
395.368561	154.660000
395.462158	154.580000
395.555756	154.200000
395.649353	155.020000
395.742920	154.300000
395.836517	154.980000
395.930115	154.440000
396.023712	154.600000
396.117279	154.920000
396.210876	154.460000
396.304474	154.200000
396.398071	154.840000
396.491669	155.180000
396.585266	154.380000
396.678833	154.540000
396.772461	154.580000
396.866028	154.500000
396.959656	154.520000
397.053223	155.020000
397.146851	155.080000
397.240417	154.920000
397.334015	155.580000
397.427582	155.400000
397.521210	155.140000
397.614807	155.760000
397.708405	156.020000
397.802002	155.340000
397.895599	155.920000
397.989197	155.700000
398.082794	155.240000
398.176392	155.180000
398.269989	155.320000
398.363586	155.320000
398.457184	156.520000
398.550781	157.200000
398.644379	157.260000
398.737976	157.840000
398.831573	158.660000
398.925201	159.140000
399.018768	161.360000
399.112396	165.580000
399.205963	172.540000
399.299591	182.520000
399.393158	198.500000
399.486786	223.280000
399.580353	264.640000
399.673981	341.760000
399.767578	481.960000
399.861206	704.560000
399.954773	1000.740000
400.048401	1316.600000
400.141998	1576.500000
400.235596	1705.100000
400.329193	1667.540000
400.422791	1472.980000
400.516418	1189.040000
400.610016	889.580000
400.703613	635.600000
400.797211	447.220000
400.890808	326.760000
400.984436	254.740000
401.078033	213.500000
401.171631	190.120000
401.265259	178.360000
401.358826	171.940000
401.452484	167.780000
401.546051	165.080000
401.639679	163.180000
401.733246	161.660000
401.826904	160.120000
401.920471	158.420000
402.014099	157.660000
402.107697	157.120000
402.201324	156.560000
402.294891	156.700000
402.388550	157.140000
402.482147	156.900000
402.575745	156.800000
402.669373	156.460000
402.762970	155.720000
402.856567	155.180000
402.950195	155.500000
403.043793	155.400000
403.137390	156.320000
403.231018	155.660000
403.324615	156.520000
403.418243	155.700000
403.511841	156.120000
403.605469	155.480000
403.699066	156.160000
403.792694	155.640000
403.886292	155.980000
403.979919	155.540000
404.073517	155.100000
404.167145	155.200000
404.260712	155.200000
404.354370	155.180000
404.447937	155.300000
404.541595	155.620000
404.635162	155.640000
404.728821	156.240000
404.822418	155.720000
404.916046	155.480000
405.009644	155.740000
405.103271	155.900000
405.196899	155.160000
405.290497	155.480000
405.384125	155.900000
405.477722	155.320000
405.571350	154.960000
405.664948	155.160000
405.758575	155.220000
405.852203	154.400000
405.945801	154.720000
406.039429	154.780000
406.133057	154.560000
406.226654	154.260000
406.320312	154.880000
406.413879	154.820000
406.507538	155.000000
406.601135	154.860000
406.694763	155.320000
406.788361	155.020000
406.882019	154.940000
406.975586	155.420000
407.069244	156.080000
407.162872	156.140000
407.256470	155.760000
407.350098	155.360000
407.443726	154.600000
407.537323	153.880000
407.630951	154.120000
407.724579	154.280000
407.818207	154.980000
407.911804	154.780000
408.005432	154.740000
408.099060	154.680000
408.192688	155.000000
408.286285	154.580000
408.379913	154.460000
408.473572	154.600000
408.567169	153.660000
408.660828	153.980000
408.754395	153.880000
408.848053	153.960000
408.941650	154.160000
409.035309	154.260000
409.128906	153.860000
409.222565	154.220000
409.316132	154.700000
409.409790	154.340000
409.503387	154.220000
409.597046	154.280000
409.690674	154.140000
409.784302	154.040000
409.877930	154.440000
409.971558	154.960000
410.065186	154.660000
410.158783	154.720000
410.252411	154.680000
410.346039	154.800000
410.439667	154.700000
410.533295	155.160000
410.626923	155.600000
410.720551	155.440000
410.814209	155.720000
410.907806	155.860000
411.001465	155.480000
411.095062	155.060000
411.188721	155.080000
411.282318	154.600000
411.375977	154.140000
411.469574	154.460000
411.563232	154.340000
411.656830	154.080000
411.750488	153.840000
411.844086	153.980000
411.937744	153.940000
412.031372	153.880000
412.125000	154.240000
412.218628	154.360000
412.312256	155.160000
412.405884	155.440000
412.499512	155.340000
412.593170	155.660000
412.686798	155.780000
412.780426	155.080000
412.874054	154.960000
412.967682	155.220000
413.061310	155.420000
413.154968	155.900000
413.248566	156.200000
413.342224	155.580000
413.435852	155.520000
413.529510	154.800000
413.623108	153.720000
413.716766	153.400000
413.810364	154.300000
413.904022	153.940000
413.997650	153.940000
414.091309	154.960000
414.184906	155.320000
414.278564	155.000000
414.372192	155.480000
414.465851	155.760000
414.559479	155.340000
414.653107	155.860000
414.746735	155.540000
414.840393	155.400000
414.934021	155.540000
415.027649	154.920000
415.121277	154.480000
415.214935	154.960000
415.308563	155.000000
415.402191	154.260000
415.495850	154.880000
415.589478	154.580000
415.683136	154.400000
415.776733	154.620000
415.870422	155.520000
415.964020	154.760000
416.057678	154.820000
416.151306	154.960000
416.244965	154.640000
416.338562	154.120000
416.432251	155.200000
416.525848	155.980000
416.619507	155.960000
416.713165	156.320000
416.806793	156.340000
416.900421	156.400000
416.994080	155.360000
417.087708	155.040000
417.181366	154.760000
417.274994	154.780000
417.368622	154.420000
417.462280	155.320000
417.555908	155.260000
417.649567	154.960000
417.743195	155.060000
417.836853	155.360000
417.930481	155.220000
418.024170	155.720000
418.117767	156.260000
418.211426	156.860000
418.305054	156.520000
418.398712	155.820000
418.492340	155.600000
418.585999	155.820000
418.679626	155.480000
418.773285	155.720000
418.866913	156.260000
418.960571	156.500000
419.054230	156.340000
419.147858	156.100000
419.241516	156.000000
419.335144	155.820000
419.428802	155.500000
419.522461	154.940000
419.616089	154.900000
419.709747	155.160000
419.803375	155.100000
419.897034	154.800000
419.990662	155.020000
420.084320	155.240000
420.177979	155.360000
420.271606	155.560000
420.365295	156.360000
420.458893	156.600000
420.552582	156.740000
420.646210	156.600000
420.739868	156.260000
420.833496	155.740000
420.927155	155.420000
421.020782	154.880000
421.114471	154.360000
421.208069	154.160000
421.301758	154.520000
421.395386	154.640000
421.489044	154.740000
421.582703	155.060000
421.676361	156.140000
421.769989	155.480000
421.863647	155.780000
421.957306	155.940000
422.050934	155.820000
422.144592	155.200000
422.238251	155.200000
422.331909	154.920000
422.425537	154.640000
422.519196	154.760000
422.612854	154.480000
422.706543	154.220000
422.800140	154.700000
422.893829	154.540000
422.987457	153.960000
423.081146	154.080000
423.174744	155.160000
423.268433	154.460000
423.362061	154.700000
423.455750	154.900000
423.549347	154.740000
423.643036	153.820000
423.736664	154.540000
423.830353	154.700000
423.924011	155.320000
424.017639	155.440000
424.111298	155.560000
424.204956	155.080000
424.298615	155.080000
424.392273	154.900000
424.485931	155.100000
424.579559	155.360000
424.673218	155.360000
424.766876	155.420000
424.860535	154.680000
424.954193	154.240000
425.047882	154.660000
425.141510	154.880000
425.235199	154.620000
425.328796	155.100000
425.422485	155.140000
425.516113	154.360000
425.609802	154.320000
425.703430	154.460000
425.797119	154.160000
425.890747	154.480000
425.984436	154.940000
426.078064	155.160000
426.171753	155.280000
426.265411	155.460000
426.359070	155.940000
426.452728	155.940000
426.546356	155.480000
426.640015	155.400000
426.733673	155.160000
426.827332	154.280000
426.920990	155.060000
427.014648	155.220000
427.108307	155.280000
427.201965	156.020000
427.295624	156.540000
427.389282	155.540000
427.482941	155.860000
427.576630	155.700000
427.670258	155.200000
427.763947	155.080000
427.857574	155.260000
427.951263	155.000000
428.044922	155.060000
428.138611	155.180000
428.232239	155.580000
428.325928	156.320000
428.419556	156.980000
428.513245	156.820000
428.606903	156.860000
428.700562	156.080000
428.794220	155.080000
428.887878	154.240000
428.981537	154.760000
429.075195	154.920000
429.168854	155.620000
429.262512	156.100000
429.356201	156.280000
429.449860	156.120000
429.543518	156.100000
429.637177	156.380000
429.730835	156.080000
429.824493	156.260000
429.918182	156.380000
430.011810	156.000000
430.105530	155.040000
430.199158	155.240000
430.292847	154.900000
430.386475	154.900000
430.480164	154.880000
430.573792	154.840000
430.667511	154.880000
430.761139	155.020000
430.854828	155.200000
430.948456	155.560000
431.042145	156.280000
431.135834	156.160000
431.229492	156.280000
431.323151	156.120000
431.416809	156.320000
431.510468	156.020000
431.604156	155.980000
431.697815	156.000000
431.791473	155.400000
431.885132	154.780000
431.978821	155.200000
432.072479	155.160000
432.166138	155.460000
432.259827	155.780000
432.353485	156.340000
432.447174	156.140000
432.540802	156.060000
432.634491	156.000000
432.728149	156.260000
432.821838	156.560000
432.915466	156.300000
433.009186	156.420000
433.102814	155.920000
433.196503	155.680000
433.290131	155.200000
433.383850	155.740000
433.477509	155.900000
433.571167	157.080000
433.664856	157.660000
433.758514	158.260000
433.852173	158.060000
433.945862	158.100000
434.039520	157.620000
434.133179	156.740000
434.226868	156.120000
434.320526	155.720000
434.414185	156.260000
434.507874	155.520000
434.601562	156.160000
434.695221	156.140000
434.788910	156.700000
434.882538	156.660000
434.976257	156.720000
435.069885	156.680000
435.163574	156.740000
435.257233	156.040000
435.350922	155.500000
435.444580	155.200000
435.538269	154.700000
435.631897	155.340000
435.725616	155.960000
435.819275	156.520000
435.912964	157.280000
436.006622	157.860000
436.100311	157.480000
436.193970	156.560000
436.287628	156.020000
436.381317	155.500000
436.474976	155.260000
436.568665	154.620000
436.662323	154.980000
436.756012	154.580000
436.849670	154.740000
436.943390	154.580000
437.037018	154.840000
437.130737	155.000000
437.224365	155.220000
437.318085	155.320000
437.411713	155.280000
437.505432	155.740000
437.599060	156.200000
437.692780	156.980000
437.786407	157.000000
437.880127	157.040000
437.973755	156.540000
438.067474	155.800000
438.161133	155.300000
438.254822	155.760000
438.348480	155.660000
438.442169	156.240000
438.535828	156.760000
438.629517	156.080000
438.723175	155.240000
438.816864	155.940000
438.910553	155.280000
439.004211	155.060000
439.097900	155.500000
439.191559	155.920000
439.285248	154.840000
439.378906	155.260000
439.472626	155.160000
439.566284	154.920000
439.659973	155.020000
439.753632	155.060000
439.847321	155.240000
439.940979	155.320000
440.034698	155.220000
440.128326	154.580000
440.222046	154.680000
440.315674	153.700000
440.409393	153.780000
440.503082	154.040000
440.596741	154.500000
440.690430	154.680000
440.784088	154.840000
440.877777	154.120000
440.971466	154.140000
441.065125	153.660000
441.158813	153.560000
441.252502	154.040000
441.346161	154.500000
441.439850	154.840000
441.533539	154.900000
441.627197	155.360000
441.720886	155.040000
441.814606	155.500000
441.908234	155.560000
442.001953	155.560000
442.095612	155.320000
442.189301	155.420000
442.282959	155.080000
442.376678	154.240000
442.470306	155.100000
442.564026	154.680000
442.657684	154.960000
442.751404	155.180000
442.845032	156.440000
442.938751	155.480000
443.032440	155.720000
443.126099	155.460000
443.219788	155.760000
443.313477	155.100000
443.407166	155.700000
443.500824	155.760000
443.594513	156.020000
443.688202	155.520000
443.781891	154.900000
443.875549	154.540000
443.969238	154.480000
444.062927	154.560000
444.156647	154.520000
444.250275	155.200000
444.343994	155.500000
444.437653	155.860000
444.531372	155.420000
444.625031	155.300000
444.718719	155.020000
444.812378	154.720000
444.906097	154.180000
444.999756	153.820000
445.093445	153.840000
445.187103	153.920000
445.280823	154.400000
445.374512	154.200000
445.468201	154.500000
445.561859	154.360000
445.655548	154.440000
445.749237	153.840000
445.842926	154.140000
445.936615	154.480000
446.030304	154.280000
446.123962	154.380000
446.217651	154.240000
446.311340	154.280000
446.405029	153.920000
446.498749	153.960000
446.592407	153.560000
446.686096	153.820000
446.779755	153.980000
446.873474	154.640000
446.967133	155.160000
447.060852	155.020000
447.154510	155.280000
447.248230	155.220000
447.341858	154.460000
447.435577	153.740000
447.529236	153.840000
447.622955	153.240000
447.716644	153.500000
447.810333	154.020000
447.904022	155.060000
447.997711	155.080000
448.091400	155.740000
448.185059	155.540000
448.278748	155.520000
448.372437	155.120000
448.466125	155.280000
448.559814	155.120000
448.653503	155.560000
448.747192	155.820000
448.840912	156.380000
448.934570	156.680000
449.028290	157.040000
449.121948	156.500000
449.215637	155.660000
449.309296	154.920000
449.403015	154.640000
449.496674	154.200000
449.590393	154.140000
449.684052	154.340000
449.777771	155.160000
449.871429	154.480000
449.965149	154.360000
450.058838	154.720000
450.152527	155.340000
450.246216	154.780000
450.339905	155.480000
450.433594	155.420000
450.527283	156.100000
450.620972	155.460000
450.714661	155.380000
450.808350	155.240000
450.902039	155.540000
450.995728	154.680000
451.089417	154.660000
451.183105	154.680000
451.276794	155.320000
451.370514	154.580000
451.464172	153.780000
451.557892	153.540000
451.651550	153.700000
451.745270	152.880000
451.838928	152.580000
451.932648	153.620000
452.026306	154.260000
452.120026	153.620000
452.213684	154.200000
452.307404	154.980000
452.401062	154.940000
452.494781	155.280000
452.588470	155.780000
452.682159	155.240000
452.775848	155.240000
452.869537	154.400000
452.963226	153.960000
453.056915	153.800000
453.150604	153.760000
453.244293	153.920000
453.337982	155.240000
453.431671	155.380000
453.525360	155.820000
453.619049	155.980000
453.712769	155.740000
453.806427	155.020000
453.900146	154.540000
453.993805	154.360000
454.087555	154.820000
454.181213	155.280000
454.274933	155.040000
454.368591	155.420000
454.462311	155.260000
454.555969	154.660000
454.649689	154.960000
454.743347	155.060000
454.837067	155.480000
454.930756	156.000000
455.024445	156.440000
455.118134	155.780000
455.211853	155.840000
455.305542	154.980000
455.399231	154.560000
455.492920	154.340000
455.586609	154.580000
455.680298	154.740000
455.773987	154.620000
455.867676	154.680000
455.961365	154.860000
456.055084	154.640000
456.148773	154.180000
456.242493	154.640000
456.336151	154.240000
456.429871	154.380000
456.523529	154.800000
456.617249	154.840000
456.710907	155.280000
456.804626	155.420000
456.898315	154.800000
456.992035	154.760000
457.085693	154.580000
457.179413	153.620000
457.273102	154.700000
457.366791	154.940000
457.460480	155.180000
457.554199	156.140000
457.647888	156.420000
457.741577	155.680000
457.835266	155.840000
457.928955	155.560000
458.022644	155.300000
458.116364	155.760000
458.210052	155.520000
458.303741	155.440000
458.397461	154.960000
458.491119	154.740000
458.584839	154.380000
458.678528	154.120000
458.772247	153.880000
458.865906	154.120000
458.959625	154.780000
459.053284	155.320000
459.147003	155.140000
459.240692	156.120000
459.334412	156.320000
459.428070	155.600000
459.521790	155.140000
459.615479	155.060000
459.709198	155.040000
459.802887	154.480000
459.896576	154.280000
459.990265	154.420000
460.083954	155.020000
460.177673	154.020000
460.271362	154.060000
460.365051	154.020000
460.458740	153.620000
460.552429	153.080000
460.646149	153.380000
460.739838	153.240000
460.833527	153.720000
460.927246	153.600000
461.020905	153.720000
461.114655	153.480000
461.208313	153.880000
461.302032	153.120000
461.395691	153.640000
461.489441	153.720000
461.583099	153.820000
461.676819	153.380000
461.770477	154.140000
461.864197	153.540000
461.957916	153.320000
462.051605	152.880000
462.145294	154.040000
462.238983	153.420000
462.332703	154.260000
462.426392	155.040000
462.520081	155.280000
462.613770	154.740000
462.707489	155.380000
462.801178	155.060000
462.894867	154.740000
462.988556	155.240000
463.082275	155.360000
463.175964	154.880000
463.269684	155.280000
463.363342	155.240000
463.457092	154.460000
463.550751	154.640000
463.644470	155.020000
463.738129	154.860000
463.831879	154.960000
463.925537	156.140000
464.019257	155.920000
464.112946	155.620000
464.206665	155.300000
464.300323	155.160000
464.394043	154.460000
464.487762	154.360000
464.581451	154.860000
464.675140	154.660000
464.768829	154.880000
464.862549	155.020000
464.956238	155.120000
465.049927	155.100000
465.143646	155.640000
465.237335	155.340000
465.331024	155.680000
465.424713	155.640000
465.518433	155.460000
465.612152	155.080000
465.705811	155.200000
465.799561	154.960000
465.893219	154.740000
465.986938	154.800000
466.080597	154.620000
466.174347	155.100000
466.268005	155.100000
466.361725	155.240000
466.455414	154.960000
466.549133	154.900000
466.642792	154.660000
466.736542	154.280000
466.830231	154.140000
466.923920	154.280000
467.017609	154.320000
467.111328	154.060000
467.205017	154.200000
467.298706	154.420000
467.392426	154.740000
467.486115	155.140000
467.579803	154.820000
467.673523	155.260000
467.767212	155.280000
467.860901	154.980000
467.954651	155.080000
468.048309	155.660000
468.142029	155.460000
468.235718	155.400000
468.329437	155.040000
468.423096	154.700000
468.516846	154.420000
468.610504	153.800000
468.704224	153.440000
468.797913	153.800000
468.891632	154.060000
468.985291	153.960000
469.079010	154.500000
469.172729	154.260000
469.266418	154.360000
469.360107	154.600000
469.453827	154.640000
469.547516	154.560000
469.641205	155.160000
469.734924	155.300000
469.828613	155.320000
469.922302	155.660000
470.016022	155.620000
470.109711	155.560000
470.203430	154.840000
470.297150	154.000000
470.390808	154.160000
470.484558	154.080000
470.578217	154.220000
470.671936	154.900000
470.765625	155.760000
470.859344	155.080000
470.953003	155.340000
471.046753	154.900000
471.140411	154.240000
471.234131	154.260000
471.327820	155.000000
471.421539	155.020000
471.515228	154.860000
471.608948	155.180000
471.702637	154.420000
471.796326	153.940000
471.890045	154.040000
471.983734	154.580000
472.077423	154.280000
472.171143	154.620000
472.264832	154.720000
472.358521	154.380000
472.452240	153.860000
472.545929	154.700000
472.639648	154.740000
472.733337	154.980000
472.827057	155.220000
472.920746	155.600000
473.014465	155.560000
473.108124	155.860000
473.201874	155.440000
473.295532	155.300000
473.389252	155.500000
473.482941	155.240000
473.576660	154.780000
473.670319	154.720000
473.764069	154.900000
473.857727	155.100000
473.951477	155.360000
474.045166	155.900000
474.138855	156.120000
474.232574	155.880000
474.326263	156.040000
474.419952	156.220000
474.513672	155.960000
474.607361	155.720000
474.701050	156.340000
474.794769	156.120000
474.888458	156.020000
474.982178	155.900000
475.075867	155.960000
475.169586	155.300000
475.263275	154.960000
475.356995	154.720000
475.450653	154.320000
475.544403	154.200000
475.638062	155.120000
475.731812	154.880000
475.825470	154.560000
475.919189	155.060000
476.012878	155.340000
476.106598	154.760000
476.200256	155.100000
476.294006	155.380000
476.387695	155.580000
476.481384	155.560000
476.575104	155.380000
476.668793	154.920000
476.762512	154.200000
476.856201	154.360000
476.949890	154.520000
477.043610	153.920000
477.137299	154.060000
477.230988	154.840000
477.324707	154.300000
477.418396	154.380000
477.512146	154.900000
477.605804	154.920000
477.699524	154.960000
477.793213	154.940000
477.886932	154.880000
477.980591	154.600000
478.074341	154.740000
478.167999	153.980000
478.261749	154.280000
478.355408	153.960000
478.449127	154.660000
478.542816	155.800000
478.636536	156.800000
478.730225	157.000000
478.823944	157.340000
478.917633	156.980000
479.011322	156.340000
479.105042	156.080000
479.198730	156.100000
479.292450	155.920000
479.386139	156.260000
479.479828	156.500000
479.573547	156.720000
479.667267	156.500000
479.760925	156.660000
479.854675	156.600000
479.948334	156.020000
480.042084	155.400000
480.135742	155.620000
480.229462	155.000000
480.323151	154.680000
480.416870	154.220000
480.510529	154.560000
480.604279	153.840000
480.697937	154.760000
480.791656	154.380000
480.885345	154.680000
480.979065	154.420000
481.072754	155.060000
481.166473	154.840000
481.260132	155.040000
481.353882	155.060000
481.447540	155.060000
481.541260	154.840000
481.635010	154.340000
481.728668	154.700000
481.822388	154.600000
481.916077	154.940000
482.009796	155.020000
482.103485	155.560000
482.197205	155.340000
482.290863	155.480000
482.384613	155.060000
482.478271	154.840000
482.571991	154.680000
482.665680	154.660000
482.759399	155.200000
482.853058	155.880000
482.946808	155.840000
483.040466	155.520000
483.134216	155.240000
483.227875	154.780000
483.321594	155.080000
483.415283	154.980000
483.509003	155.140000
483.602661	155.420000
483.696411	155.800000
483.790070	155.140000
483.883789	155.140000
483.977478	155.140000
484.071198	155.120000
484.164917	154.360000
484.258606	154.240000
484.352325	154.740000
484.445984	155.100000
484.539734	154.960000
484.633392	154.820000
484.727142	155.080000
484.820801	154.740000
484.914520	154.460000
485.008209	154.960000
485.101929	155.600000
485.195587	155.140000
485.289337	154.920000
485.382996	155.080000
485.476715	154.560000
485.570404	154.720000
485.664124	154.780000
485.757782	155.360000
485.851532	154.880000
485.945190	155.060000
486.038910	154.980000
486.132599	155.500000
486.226318	154.580000
486.319977	154.720000
486.413727	155.300000
486.507446	154.720000
486.601105	153.880000
486.694855	154.320000
486.788513	154.260000
486.882233	153.880000
486.975922	154.120000
487.069641	154.160000
487.163300	153.920000
487.257050	154.900000
487.350708	154.640000
487.444427	154.480000
487.538116	154.640000
487.631836	154.620000
487.725494	153.980000
487.819214	153.960000
487.912903	154.120000
488.006622	154.400000
488.100281	154.700000
488.194031	154.640000
488.287689	155.320000
488.381409	156.060000
488.475098	155.780000
488.568817	156.000000
488.662476	155.580000
488.756226	154.680000
488.849945	153.620000
488.943604	153.740000
489.037354	154.100000
489.131012	154.460000
489.224731	154.580000
489.318390	154.760000
489.412140	154.940000
489.505798	154.560000
489.599518	154.300000
489.693207	154.860000
489.786926	154.840000
489.880585	154.900000
489.974335	154.960000
490.067993	156.220000
490.161713	155.980000
490.255371	156.940000
490.349121	156.640000
490.442780	156.540000
490.536499	155.400000
490.630188	155.400000
490.723907	154.280000
490.817566	154.680000
490.911285	154.520000
491.004974	154.480000
491.098694	153.960000
491.192413	154.960000
491.286102	154.640000
491.379822	154.840000
491.473480	155.060000
491.567200	155.300000
491.660889	154.260000
491.754608	154.480000
491.848267	154.360000
491.941986	154.180000
492.035675	154.260000
492.129395	155.180000
492.223053	154.900000
492.316772	154.940000
492.410461	154.840000
492.504181	154.820000
492.597839	154.320000
492.691559	154.600000
492.785248	155.020000
492.878967	155.380000
492.972626	155.140000
493.066345	155.040000
493.160034	154.600000
493.253754	154.140000
493.347412	153.380000
493.441132	153.960000
493.534882	154.640000
493.628540	155.380000
493.722260	155.500000
493.815918	156.280000
493.909668	156.520000
494.003326	156.580000
494.097046	156.320000
494.190704	156.180000
494.284454	156.040000
494.378113	156.040000
494.471832	155.760000
494.565491	155.260000
494.659210	155.500000
494.752899	155.640000
494.846619	155.100000
494.940277	155.060000
495.033997	155.320000
495.127686	155.020000
495.221405	154.520000
495.315063	154.900000
495.408783	154.680000
495.502441	154.720000
495.596191	154.720000
495.689850	154.600000
495.783569	154.660000
495.877228	154.700000
495.970947	154.440000
496.064697	154.240000
496.158356	155.280000
496.252075	155.120000
496.345734	155.140000
496.439453	156.180000
496.533142	156.500000
496.626862	156.540000
496.720520	156.460000
496.814240	156.460000
496.907898	155.960000
497.001617	155.920000
497.095306	155.160000
497.189026	155.120000
497.282684	154.940000
497.376404	154.880000
497.470062	154.660000
497.563782	154.740000
497.657471	154.560000
497.751190	154.740000
497.844849	154.780000
497.938568	155.460000
498.032227	155.420000
498.125946	155.500000
498.219635	155.200000
498.313354	155.240000
498.407074	154.460000
498.500732	154.740000
498.594452	154.940000
498.688110	154.700000
498.781830	154.180000
498.875519	154.280000
498.969238	153.940000
499.062897	153.700000
499.156616	154.500000
499.250275	154.660000
499.343994	154.520000
499.437653	154.980000
499.531372	155.220000
499.625061	155.260000
499.718781	155.400000
499.812439	155.780000
499.906158	155.360000
499.999817	155.120000
500.093536	154.540000
500.187195	154.560000
500.280914	154.460000
500.374573	154.680000
500.468323	154.600000
500.561981	155.020000
500.655701	154.700000
500.749420	154.720000
500.843079	154.800000
500.936798	155.020000
501.030457	155.320000
501.124176	155.540000
501.217834	155.500000
501.311554	155.180000
501.405212	155.000000
501.498962	154.000000
501.592621	153.880000
501.686340	154.040000
501.779999	154.180000
501.873718	154.060000
501.967377	154.780000
502.061096	155.100000
502.154755	154.640000
502.248474	154.840000
502.342133	155.180000
502.435852	154.800000
502.529510	155.640000
502.623230	156.440000
502.716888	155.800000
502.810608	155.660000
502.904266	156.280000
502.997986	155.340000
503.091705	154.780000
503.185364	154.980000
503.279083	155.020000
503.372772	154.560000
503.466492	153.800000
503.560150	154.080000
503.653870	154.540000
503.747528	154.560000
503.841248	154.300000
503.934906	155.200000
504.028625	154.640000
504.122284	154.600000
504.216003	155.340000
504.309662	155.220000
504.403381	155.320000
504.497040	155.560000
504.590759	155.540000
504.684418	155.080000
504.778137	155.800000
504.871796	155.920000
504.965515	155.720000
505.059174	155.320000
505.152893	154.560000
505.246521	153.840000
505.340240	153.280000
505.433899	153.300000
505.527618	153.600000
505.621338	154.300000
505.714996	154.360000
505.808716	154.140000
505.902374	154.780000
505.996094	154.740000
506.089752	154.300000
506.183472	154.600000
506.277130	155.260000
506.370850	154.920000
506.464508	154.700000
506.558228	154.880000
506.651886	154.460000
506.745605	154.200000
506.839264	154.080000
506.932983	154.240000
507.026611	154.180000
507.120331	154.700000
507.213989	154.140000
507.307709	154.460000
507.401367	154.680000
507.495087	155.580000
507.588745	155.220000
507.682465	156.740000
507.776123	156.280000
507.869843	156.140000
507.963531	155.780000
508.057190	156.520000
508.150909	155.340000
508.244568	155.760000
508.338287	155.360000
508.431946	154.680000
508.525665	153.960000
508.619324	154.120000
508.713013	154.060000
508.806671	154.500000
508.900391	155.820000
508.994049	156.100000
509.087769	155.640000
509.181427	155.580000
509.275146	155.340000
509.368774	153.960000
509.462494	153.940000
509.556152	154.140000
509.649872	154.600000
509.743530	154.800000
509.837250	155.140000
509.930878	154.960000
510.024597	154.900000
510.118256	154.340000
510.211975	154.280000
510.305695	154.200000
510.399353	154.740000
510.493042	155.440000
510.586700	155.940000
510.680420	156.560000
510.774078	156.380000
510.867798	156.140000
510.961426	155.640000
511.055145	155.420000
511.148804	154.640000
511.242523	155.080000
511.336151	155.240000
511.429871	155.800000
511.523529	155.320000
511.617249	155.320000
511.710876	155.280000
511.804596	154.780000
511.898254	154.220000
511.991974	154.920000
512.085632	154.920000
512.179321	155.060000
512.272949	155.680000
512.366699	156.000000
512.460327	155.620000
512.554077	156.520000
512.647766	156.220000
512.741394	155.540000
512.835144	155.920000
512.928772	155.680000
513.022461	155.380000
513.116150	155.100000
513.209839	155.780000
513.303467	155.020000
513.397217	155.080000
513.490845	154.660000
513.584595	154.420000
513.678223	153.840000
513.771912	153.240000
513.865601	153.420000
513.959290	153.060000
514.052917	153.660000
514.146667	154.540000
514.240295	155.200000
514.333984	155.360000
514.427673	155.460000
514.521362	155.660000
514.614990	154.880000
514.708740	154.940000
514.802368	155.200000
514.896057	155.580000
514.989746	155.940000
515.083435	155.820000
515.177124	156.040000
515.270752	155.140000
515.364502	154.840000
515.458130	154.600000
515.551819	154.400000
515.645508	154.240000
515.739197	154.660000
515.832825	154.840000
515.926575	154.440000
516.020203	154.740000
516.113892	155.120000
516.207520	155.000000
516.301270	155.040000
516.394897	155.080000
516.488586	155.760000
516.582275	155.760000
516.675964	155.200000
516.769592	155.040000
516.863281	156.020000
516.956970	155.820000
517.050659	155.600000
517.144287	156.240000
517.238037	156.260000
517.331665	155.000000
517.425354	154.540000
517.519043	154.020000
517.612732	154.180000
517.706421	154.180000
517.800049	154.280000
517.893738	154.040000
517.987427	154.440000
518.081116	154.280000
518.174744	154.040000
518.268433	154.420000
518.362122	155.240000
518.455811	154.820000
518.549438	155.260000
518.643127	156.100000
518.736816	155.940000
518.830505	155.220000
518.924133	155.420000
519.017822	155.240000
519.111511	154.800000
519.205200	155.060000
519.298828	155.060000
519.392517	154.900000
519.486206	155.100000
519.579895	155.000000
519.673523	154.720000
519.767212	154.980000
519.860901	155.740000
519.954590	155.260000
520.048279	154.720000
520.141907	154.660000
520.235596	155.680000
520.329224	155.280000
520.422974	155.160000
520.516602	155.640000
520.610291	155.160000
520.703918	154.420000
520.797607	154.100000
520.891296	154.180000
520.984985	154.200000
521.078613	155.120000
521.172302	154.700000
521.265930	155.700000
521.359680	156.220000
521.453308	156.220000
521.546997	155.880000
521.640625	155.760000
521.734314	155.040000
521.827942	154.820000
521.921692	155.380000
522.015320	155.260000
522.109009	155.600000
522.202698	155.360000
522.296326	155.260000
522.390015	154.960000
522.483704	155.400000
522.577393	155.100000
522.671021	155.100000
522.764709	154.780000
522.858337	155.200000
522.952026	154.960000
523.045654	155.620000
523.139404	156.600000
523.233032	156.700000
523.326721	156.140000
523.420349	156.040000
523.514038	155.540000
523.607666	155.420000
523.701355	155.180000
523.795044	154.940000
523.888733	155.080000
523.982361	155.280000
524.076050	154.520000
524.169678	155.340000
524.263367	155.080000
524.356995	154.580000
524.450684	154.320000
524.544373	154.180000
524.638062	153.820000
524.731750	154.360000
524.825378	154.680000
524.919067	154.180000
525.012695	154.600000
525.106384	154.380000
525.200012	154.280000
525.293701	154.020000
525.387329	154.820000
525.481018	154.860000
525.574646	155.080000
525.668396	155.140000
525.762024	155.720000
525.855713	155.680000
525.949341	155.240000
526.043030	155.240000
526.136658	155.100000
526.230347	154.280000
526.323975	153.860000
526.417664	153.820000
526.511292	154.120000
526.604980	154.360000
526.698608	154.380000
526.792297	154.480000
526.885925	154.780000
526.979614	154.640000
527.073303	154.240000
527.166931	154.500000
527.260620	154.620000
527.354309	154.840000
527.447998	154.680000
527.541626	154.620000
527.635315	154.940000
527.728943	155.360000
527.822632	155.260000
527.916260	155.420000
528.009949	155.800000
528.103577	155.340000
528.197266	154.500000
528.290894	154.640000
528.384583	154.400000
528.478210	154.360000
528.571899	154.680000
528.665527	155.360000
528.759216	155.200000
528.852844	155.600000
528.946533	155.600000
529.040161	155.440000
529.133850	154.980000
529.227478	155.200000
529.321167	155.320000
529.414856	155.580000
529.508484	156.220000
529.602173	156.080000
529.695801	155.900000
529.789490	155.460000
529.883057	154.820000
529.976746	154.740000
530.070374	155.260000
530.164062	155.080000
530.257690	155.580000
530.351379	156.040000
530.445007	155.540000
530.538696	154.860000
530.632324	155.380000
530.726013	154.940000
530.819641	154.700000
530.913330	154.980000
531.006958	155.060000
531.100647	154.520000
531.194275	154.320000
531.287964	154.080000
531.381592	153.740000
531.475220	154.200000
531.568848	154.400000
531.662537	154.380000
531.756226	155.200000
531.849854	155.180000
531.943542	155.200000
532.037170	155.120000
532.130859	155.900000
532.224487	155.240000
532.318176	155.080000
532.411804	155.180000
532.505432	155.300000
532.599060	154.700000
532.692749	154.820000
532.786377	155.240000
532.880066	154.740000
532.973694	153.880000
533.067383	153.860000
533.161011	153.760000
533.254639	153.820000
533.348267	154.120000
533.441956	154.820000
533.535583	154.720000
533.629272	154.980000
533.722900	154.420000
533.816589	154.580000
533.910156	155.020000
534.003845	154.700000
534.097534	154.600000
534.191162	155.260000
534.284851	155.100000
534.378479	154.680000
534.472107	155.020000
534.565735	154.800000
534.659424	155.060000
534.753052	155.240000
534.846741	154.980000
534.940369	155.760000
535.033997	155.760000
535.127625	155.440000
535.221313	155.860000
535.314941	155.940000
535.408630	154.920000
535.502197	155.500000
535.595886	155.200000
535.689514	154.460000
535.783203	154.660000
535.876831	155.300000
535.970459	155.120000
536.064087	154.900000
536.157776	155.160000
536.251404	155.420000
536.345093	154.900000
536.438721	154.860000
536.532349	155.260000
536.626038	155.020000
536.719666	155.020000
536.813293	154.900000
536.906921	154.860000
537.000610	154.940000
537.094238	154.960000
537.187866	154.880000
537.281494	154.980000
537.375183	155.360000
537.468811	155.260000
537.562439	155.420000
537.656067	155.220000
537.749756	155.340000
537.843384	155.380000
537.937012	155.520000
538.030640	155.020000
538.124329	155.000000
538.217896	155.500000
538.311584	155.040000
538.405212	154.920000
538.498901	155.720000
538.592468	156.500000
538.686157	155.740000
538.779785	155.140000
538.873413	155.120000
538.967102	154.820000
539.060730	154.100000
539.154358	154.640000
539.247986	155.400000
539.341675	155.500000
539.435242	155.440000
539.528931	155.600000
539.622559	155.200000
539.716187	155.400000
539.809814	155.220000
539.903503	155.260000
539.997070	154.920000
540.090759	154.820000
540.184387	154.580000
540.278015	155.300000
540.371643	155.700000
540.465332	156.140000
540.558899	156.280000
540.652588	156.200000
540.746216	155.520000
540.839844	155.580000
540.933472	155.280000
541.027100	155.420000
541.120728	155.340000
541.214417	155.720000
541.308044	155.800000
541.401672	155.520000
541.495300	155.140000
541.588928	155.060000
541.682617	154.740000
541.776184	153.860000
541.869873	154.540000
541.963440	155.100000
542.057129	155.100000
542.150757	154.840000
542.244385	154.680000
542.338013	153.960000
542.431641	153.460000
542.525269	153.520000
542.618958	153.880000
542.712524	154.380000
542.806213	154.600000
542.899780	154.860000
542.993469	154.540000
543.087036	154.480000
543.180725	154.120000
543.274292	154.440000
543.367981	154.900000
543.461548	155.500000
543.555237	155.420000
543.648926	156.260000
543.742493	156.940000
543.836182	156.620000
543.929749	156.440000
544.023437	156.720000
544.117004	156.560000
544.210693	155.900000
544.304260	155.960000
544.397949	155.960000
544.491516	155.820000
544.585205	155.300000
544.678772	154.540000
544.772461	154.620000
544.866028	154.380000
544.959717	154.480000
545.053284	154.260000
545.146973	154.900000
545.240540	154.940000
545.334229	155.740000
545.427795	155.740000
545.521423	156.120000
545.615051	155.820000
545.708679	155.920000
545.802307	155.480000
545.895935	155.540000
545.989624	156.160000
546.083191	156.460000
546.176880	156.240000
546.270447	155.500000
546.364136	155.920000
546.457703	155.200000
546.551331	154.820000
546.644958	155.040000
546.738586	156.020000
546.832214	155.520000
546.925842	155.340000
547.019409	155.860000
547.113098	155.320000
547.206665	154.680000
547.300354	154.860000
547.393921	155.460000
547.487549	155.620000
547.581177	155.440000
547.674805	155.620000
547.768433	154.860000
547.862061	154.700000
547.955627	154.080000
548.049316	154.960000
548.142883	154.980000
548.236572	155.720000
548.330139	156.100000
548.423767	156.360000
548.517456	155.720000
548.611023	156.000000
548.704651	155.420000
548.798279	154.820000
548.891907	155.220000
548.985474	155.440000
549.079163	155.340000
549.172729	155.200000
549.266357	154.900000
549.359985	154.560000
549.453613	154.080000
549.547180	153.860000
549.640869	154.680000
549.734436	154.760000
549.828064	155.020000
549.921631	155.400000
550.015320	154.980000
550.108887	154.960000
550.202515	155.260000
550.296143	154.700000
550.389771	154.620000
550.483337	155.060000
550.576965	154.700000
550.670593	155.040000
550.764221	155.120000
550.857849	155.120000
550.951477	154.740000
551.045105	154.580000
551.138672	154.500000
551.232300	154.240000
551.325928	154.700000
551.419556	155.140000
551.513123	155.260000
551.606750	154.760000
551.700378	155.280000
551.794006	154.780000
551.887573	154.440000
551.981201	154.980000
552.074768	155.120000
552.168457	154.880000
552.262024	156.040000
552.355652	156.420000
552.449219	156.520000
552.542847	156.640000
552.636475	156.360000
552.730103	154.960000
552.823669	154.540000
552.917297	153.840000
553.010864	153.740000
553.104553	154.100000
553.198181	153.840000
553.291748	154.540000
553.385376	154.900000
553.478943	154.640000
553.572571	154.420000
553.666199	155.120000
553.759827	154.240000
553.853394	153.700000
553.947021	154.040000
554.040588	154.400000
554.134216	154.420000
554.227783	155.740000
554.321411	156.420000
554.415039	155.840000
554.508667	155.760000
554.602234	155.760000
554.695862	154.780000
554.789429	154.720000
554.883057	155.280000
554.976624	155.020000
555.070251	154.920000
555.163818	154.940000
555.257507	154.520000
555.351074	154.560000
555.444702	155.700000
555.538330	155.220000
555.631897	155.380000
555.725525	155.480000
555.819092	155.200000
555.912720	154.280000
556.006287	155.020000
556.099915	154.820000
556.193481	154.860000
556.287109	155.140000
556.380676	154.680000
556.474304	154.660000
556.567871	155.040000
556.661499	154.500000
556.755066	154.240000
556.848694	154.600000
556.942261	154.380000
557.035889	154.540000
557.129517	154.900000
557.223145	155.360000
557.316711	155.560000
557.410339	155.740000
557.503906	155.320000
557.597473	155.460000
557.691040	155.260000
557.784668	155.000000
557.878296	154.760000
557.971863	154.840000
558.065491	155.060000
558.159058	154.880000
558.252686	155.720000
558.346252	156.740000
558.439880	156.520000
558.533447	156.200000
558.627075	155.720000
558.720642	154.980000
558.814270	154.240000
558.907837	154.220000
559.001465	153.720000
559.095032	154.600000
559.188660	154.820000
559.282227	154.100000
559.375854	154.660000
559.469360	155.000000
559.562988	155.140000
559.656555	155.380000
559.750183	155.800000
559.843750	156.040000
559.937378	156.160000
560.030945	155.780000
560.124573	0.000000
560.218140	0.000000
560.311707	0.000000
560.405334	0.000000
560.498901	0.000000
560.592529	0.000000
560.686096	0.000000
560.779724	0.000000
560.873291	0.000000
560.966858	0.000000
561.060425	0.000000
561.154053	0.000000
561.247620	0.000000
561.341248	0.000000
561.434814	0.000000
561.528381	0.000000
561.621948	0.000000
561.715576	0.000000
561.809143	0.000000
561.902771	0.000000
561.996277	0.000000
562.089905	0.000000
562.183472	0.000000
562.277100	0.000000
