Model Number: SPM-002-B   
Serial Number: 70087108
Firmware Version: 004.15.4
Exposure Time: 100000.000000us
Data Taken on: 15-01-2021 16:40:17.186
Wavelength	Amplitude
221.570786	0.000000
221.663406	0.000000
221.756027	0.000000
221.848648	0.000000
221.941269	0.000000
222.033905	0.000000
222.126526	0.000000
222.219162	0.000000
222.311798	0.000000
222.404419	0.000000
222.497055	0.000000
222.589676	0.000000
222.682312	0.000000
222.774933	0.000000
222.867569	0.000000
222.960205	0.000000
223.052841	0.000000
223.145462	0.000000
223.238098	0.000000
223.330734	0.000000
223.423386	0.000000
223.516022	0.000000
223.608658	0.000000
223.701309	0.000000
223.793945	0.000000
223.886581	0.000000
223.979218	0.000000
224.071869	0.000000
224.164505	0.000000
224.257156	0.000000
224.349792	0.000000
224.442444	0.000000
224.535095	0.000000
224.627747	0.000000
224.720398	0.000000
224.813034	0.000000
224.905685	0.000000
224.998337	153.400000
225.090988	153.100000
225.183640	153.240000
225.276291	152.860000
225.368942	153.080000
225.461594	153.160000
225.554245	153.680000
225.646912	153.640000
225.739578	153.980000
225.832230	154.740000
225.924896	154.080000
226.017548	154.020000
226.110199	154.420000
226.202866	154.020000
226.295532	153.720000
226.388184	153.700000
226.480850	153.100000
226.573517	152.560000
226.666168	152.740000
226.758835	152.800000
226.851501	153.680000
226.944183	154.000000
227.036850	153.620000
227.129517	153.600000
227.222183	153.940000
227.314850	153.700000
227.407516	154.180000
227.500198	155.480000
227.592865	155.100000
227.685532	154.400000
227.778214	154.080000
227.870880	154.340000
227.963562	154.020000
228.056229	154.600000
228.148926	154.760000
228.241592	155.520000
228.334274	154.540000
228.426956	154.420000
228.519638	154.620000
228.612305	154.360000
228.704987	154.260000
228.797668	154.880000
228.890350	154.600000
228.983032	153.800000
229.075714	154.680000
229.168396	154.260000
229.261108	153.500000
229.353790	153.600000
229.446472	154.160000
229.539169	153.680000
229.631851	153.180000
229.724533	153.880000
229.817230	154.100000
229.909912	155.060000
230.002609	155.140000
230.095306	155.220000
230.187988	155.060000
230.280685	154.820000
230.373383	153.200000
230.466095	153.020000
230.558792	153.500000
230.651474	153.460000
230.744171	153.080000
230.836868	153.300000
230.929581	153.740000
231.022278	153.940000
231.114975	154.020000
231.207672	153.780000
231.300369	154.620000
231.393082	154.360000
231.485779	154.100000
231.578506	154.100000
231.671204	154.540000
231.763916	154.200000
231.856613	154.100000
231.949326	154.180000
232.042023	153.940000
232.134735	153.960000
232.227448	153.460000
232.320160	154.020000
232.412872	154.080000
232.505585	154.840000
232.598297	155.240000
232.691010	155.280000
232.783722	154.560000
232.876450	155.020000
232.969162	154.360000
233.061874	153.780000
233.154587	153.540000
233.247314	153.840000
233.340027	152.900000
233.432739	153.360000
233.525467	153.320000
233.618179	153.980000
233.710907	153.440000
233.803635	153.920000
233.896347	153.560000
233.989090	154.500000
234.081818	154.260000
234.174545	154.760000
234.267258	154.740000
234.359985	155.000000
234.452713	154.360000
234.545441	154.500000
234.638168	154.440000
234.730896	154.840000
234.823639	154.680000
234.916367	155.280000
235.009094	155.060000
235.101822	154.940000
235.194580	154.580000
235.287308	154.660000
235.380051	153.720000
235.472778	154.080000
235.565521	154.360000
235.658249	153.880000
235.750992	153.740000
235.843719	153.820000
235.936462	154.140000
236.029205	153.880000
236.121948	153.680000
236.214691	154.220000
236.307449	154.960000
236.400192	154.420000
236.492935	154.380000
236.585678	154.920000
236.678421	154.780000
236.771164	154.260000
236.863907	154.720000
236.956665	154.860000
237.049408	156.600000
237.142151	156.180000
237.234909	157.220000
237.327652	157.060000
237.420410	156.760000
237.513153	155.540000
237.605927	155.320000
237.698669	154.560000
237.791428	153.980000
237.884186	154.440000
237.976944	153.580000
238.069702	154.080000
238.162445	153.500000
238.255203	153.860000
238.347961	154.100000
238.440720	154.400000
238.533478	154.160000
238.626266	154.080000
238.719025	153.940000
238.811783	153.360000
238.904541	153.100000
238.997314	153.120000
239.090073	153.040000
239.182831	153.340000
239.275604	154.200000
239.368362	154.360000
239.461136	154.280000
239.553909	154.480000
239.646667	154.100000
239.739441	153.780000
239.832214	154.200000
239.925003	154.460000
240.017761	154.940000
240.110535	155.580000
240.203308	155.040000
240.296082	154.840000
240.388855	154.820000
240.481628	154.840000
240.574417	155.200000
240.667191	155.480000
240.759964	155.040000
240.852737	155.040000
240.945526	154.580000
241.038315	154.000000
241.131088	153.900000
241.223877	154.280000
241.316650	153.880000
241.409439	154.360000
241.502228	154.040000
241.595001	154.640000
241.687790	154.400000
241.780579	154.560000
241.873367	154.740000
241.966141	154.840000
242.058929	154.040000
242.151718	154.440000
242.244507	154.780000
242.337311	154.120000
242.430099	154.580000
242.522903	154.760000
242.615692	154.220000
242.708481	154.020000
242.801270	154.560000
242.894073	154.360000
242.986862	154.280000
243.079651	154.880000
243.172455	154.660000
243.265244	154.480000
243.358063	153.840000
243.450867	154.120000
243.543655	154.000000
243.636459	153.940000
243.729263	154.280000
243.822067	155.120000
243.914856	155.560000
244.007660	155.400000
244.100464	155.560000
244.193268	154.920000
244.286072	154.200000
244.378876	153.340000
244.471680	153.300000
244.564499	153.820000
244.657318	154.880000
244.750122	155.300000
244.842926	154.860000
244.935745	155.300000
245.028549	154.600000
245.121368	153.880000
245.214172	153.500000
245.306992	154.480000
245.399796	153.900000
245.492615	154.140000
245.585434	153.840000
245.678253	153.900000
245.771072	153.400000
245.863892	153.640000
245.956711	153.720000
246.049530	153.900000
246.142349	153.560000
246.235168	153.840000
246.327988	154.380000
246.420807	154.320000
246.513626	154.420000
246.606445	154.580000
246.699280	154.380000
246.792099	153.760000
246.884918	153.260000
246.977753	152.580000
247.070587	152.660000
247.163422	152.800000
247.256241	152.660000
247.349075	153.240000
247.441895	153.680000
247.534729	153.760000
247.627563	153.540000
247.720383	154.420000
247.813217	154.040000
247.906052	153.700000
247.998886	153.840000
248.091736	153.980000
248.184570	153.420000
248.277405	153.580000
248.370239	154.980000
248.463074	155.900000
248.555908	155.940000
248.648743	155.860000
248.741592	156.120000
248.834427	155.060000
248.927261	153.620000
249.020111	153.960000
249.112946	154.380000
249.205795	153.900000
249.298630	154.060000
249.391495	154.420000
249.484344	154.180000
249.577179	154.080000
249.670029	154.380000
249.762878	154.740000
249.855728	154.860000
249.948563	155.040000
250.041412	154.600000
250.134262	154.660000
250.227112	154.580000
250.319962	154.480000
250.412827	154.020000
250.505692	153.560000
250.598541	153.780000
250.691391	153.460000
250.784241	153.740000
250.877106	154.420000
250.969955	154.460000
251.062805	154.860000
251.155670	155.520000
251.248520	155.340000
251.341385	155.380000
251.434235	155.480000
251.527100	154.620000
251.619965	154.040000
251.712814	154.860000
251.805695	154.600000
251.898560	154.960000
251.991425	155.560000
252.084290	155.400000
252.177155	154.340000
252.270020	154.120000
252.362885	154.160000
252.455750	154.060000
252.548615	154.240000
252.641479	154.480000
252.734360	154.460000
252.827240	154.240000
252.920105	154.080000
253.012970	153.800000
253.105850	153.700000
253.198715	153.500000
253.291595	153.700000
253.384460	153.240000
253.477341	153.280000
253.570221	153.500000
253.663086	153.480000
253.755966	154.100000
253.848846	154.360000
253.941727	154.760000
254.034592	154.580000
254.127472	154.060000
254.220367	153.720000
254.313248	153.920000
254.406128	153.400000
254.499008	153.840000
254.591904	154.900000
254.684784	155.380000
254.777664	155.280000
254.870544	155.140000
254.963440	154.880000
255.056335	154.760000
255.149216	153.840000
255.242111	154.800000
255.334991	155.100000
255.427887	155.040000
255.520767	154.840000
255.613663	155.240000
255.706558	154.040000
255.799438	153.840000
255.892334	153.640000
255.985229	153.580000
256.078125	153.300000
256.171021	153.720000
256.263916	154.300000
256.356812	154.580000
256.449707	154.860000
256.542603	154.800000
256.635498	155.080000
256.728394	154.780000
256.821289	154.620000
256.914215	154.580000
257.007080	154.980000
257.100006	154.800000
257.192932	155.360000
257.285828	155.700000
257.378723	155.600000
257.471619	155.340000
257.564545	154.820000
257.657440	154.460000
257.750336	154.860000
257.843262	154.180000
257.936157	155.280000
258.029053	155.640000
258.121979	155.880000
258.214874	155.380000
258.307800	155.660000
258.400696	154.600000
258.493622	154.420000
258.586517	153.680000
258.679443	153.960000
258.772339	153.880000
258.865265	153.700000
258.958160	153.320000
259.051086	154.340000
259.144012	154.060000
259.236938	154.720000
259.329834	155.060000
259.422791	155.160000
259.515717	154.320000
259.608612	154.160000
259.701538	154.080000
259.794464	153.780000
259.887390	153.920000
259.980316	153.960000
260.073212	153.680000
260.166138	152.780000
260.259064	153.120000
260.351990	153.880000
260.444916	153.860000
260.537842	154.500000
260.630768	155.360000
260.723694	155.200000
260.816620	154.600000
260.909546	154.680000
261.002472	153.980000
261.095398	153.440000
261.188354	153.440000
261.281281	153.340000
261.374207	153.180000
261.467133	154.100000
261.560089	154.360000
261.653015	154.120000
261.745972	154.740000
261.838867	155.460000
261.931824	155.560000
262.024780	155.240000
262.117706	155.660000
262.210663	155.720000
262.303589	155.160000
262.396515	154.660000
262.489471	155.660000
262.582397	155.300000
262.675354	154.480000
262.768280	154.700000
262.861237	154.660000
262.954163	154.220000
263.047119	154.580000
263.140045	154.500000
263.233002	154.420000
263.325958	154.560000
263.418884	154.220000
263.511841	153.920000
263.604797	154.040000
263.697723	154.040000
263.790680	153.820000
263.883636	154.460000
263.976593	154.180000
264.069550	154.600000
264.162476	154.060000
264.255463	154.180000
264.348419	153.920000
264.441376	154.260000
264.534332	153.660000
264.627289	154.380000
264.720245	154.600000
264.813202	154.000000
264.906158	154.160000
264.999115	154.980000
265.092072	154.840000
265.185028	155.400000
265.277985	155.840000
265.370941	155.720000
265.463898	154.940000
265.556854	154.480000
265.649811	153.280000
265.742798	153.320000
265.835754	153.300000
265.928711	154.220000
266.021667	154.540000
266.114655	155.060000
266.207611	155.260000
266.300568	154.860000
266.393585	153.960000
266.486511	154.240000
266.579498	153.580000
266.672485	153.380000
266.765442	153.300000
266.858429	153.920000
266.951385	153.300000
267.044342	153.780000
267.137329	153.760000
267.230316	154.080000
267.323273	153.580000
267.416260	154.320000
267.509216	154.240000
267.602203	153.980000
267.695160	154.560000
267.788147	154.540000
267.881134	154.020000
267.974091	154.040000
268.067078	154.160000
268.160065	153.980000
268.253052	154.240000
268.346008	154.260000
268.438995	154.320000
268.531982	154.640000
268.624969	153.920000
268.717987	153.920000
268.810944	153.880000
268.903961	153.740000
268.996948	153.180000
269.089905	153.820000
269.182892	153.820000
269.275879	154.120000
269.368866	153.660000
269.461853	153.960000
269.554871	153.960000
269.647858	154.060000
269.740845	154.200000
269.833832	154.920000
269.926819	154.720000
270.019806	154.660000
270.112793	154.400000
270.205811	154.580000
270.298798	154.280000
270.391785	154.760000
270.484772	154.340000
270.577789	154.400000
270.670776	153.700000
270.763763	153.640000
270.856750	153.500000
270.949768	153.800000
271.042786	153.640000
271.135773	154.020000
271.228790	154.380000
271.321808	154.000000
271.414795	153.420000
271.507782	153.200000
271.600800	152.900000
271.693817	153.040000
271.786804	153.640000
271.879822	153.860000
271.972809	153.900000
272.065826	154.380000
272.158844	153.860000
272.251831	154.140000
272.344849	154.380000
272.437866	154.420000
272.530853	154.320000
272.623871	154.640000
272.716888	153.500000
272.809906	154.060000
272.902893	153.960000
272.995911	153.180000
273.088928	153.220000
273.181946	154.080000
273.274963	153.420000
273.367981	153.600000
273.460999	154.280000
273.554047	154.640000
273.647003	154.800000
273.740051	154.880000
273.833069	155.380000
273.926086	155.300000
274.019135	154.960000
274.112152	154.640000
274.205170	154.680000
274.298187	154.660000
274.391205	154.300000
274.484222	154.320000
274.577240	154.020000
274.670258	154.080000
274.763306	153.760000
274.856323	154.320000
274.949341	154.320000
275.042358	154.940000
275.135406	154.660000
275.228424	154.600000
275.321442	154.560000
275.414490	154.340000
275.507507	154.580000
275.600525	155.080000
275.693573	155.060000
275.786591	154.560000
275.879669	154.620000
275.972656	153.940000
276.065735	153.800000
276.158752	154.540000
276.251801	155.260000
276.344818	155.440000
276.437866	155.640000
276.530884	155.340000
276.623932	154.140000
276.716980	154.440000
276.809998	154.340000
276.903046	153.940000
276.996094	155.020000
277.089111	156.040000
277.182159	156.000000
277.275208	155.600000
277.368256	156.080000
277.461304	155.540000
277.554321	154.640000
277.647369	154.320000
277.740417	154.740000
277.833466	154.280000
277.926514	153.920000
278.019562	154.840000
278.112610	154.180000
278.205688	154.260000
278.298706	154.400000
278.391785	154.280000
278.484833	153.760000
278.577881	154.140000
278.670929	154.540000
278.763977	155.000000
278.857025	155.340000
278.950073	155.360000
279.043121	155.000000
279.136169	154.200000
279.229248	153.700000
279.322296	153.460000
279.415344	153.320000
279.508392	153.440000
279.601440	153.780000
279.694519	153.840000
279.787567	153.880000
279.880615	153.640000
279.973694	153.560000
280.066742	153.360000
280.159790	153.480000
280.252869	152.920000
280.345917	153.420000
280.438995	153.640000
280.532074	154.100000
280.625122	154.560000
280.718201	155.980000
280.811279	155.440000
280.904327	154.940000
280.997406	154.640000
281.090454	154.200000
281.183533	153.240000
281.276581	153.720000
281.369659	153.920000
281.462738	153.840000
281.555786	154.180000
281.648865	154.640000
281.741943	154.300000
281.835022	154.980000
281.928070	154.820000
282.021149	154.320000
282.114227	153.760000
282.207306	153.940000
282.300385	154.120000
282.393433	154.240000
282.486511	154.280000
282.579590	154.820000
282.672668	154.900000
282.765747	154.200000
282.858856	153.860000
282.951904	154.060000
283.045013	154.260000
283.138062	154.580000
283.231171	155.000000
283.324249	155.440000
283.417328	155.260000
283.510406	154.480000
283.603485	154.340000
283.696564	153.960000
283.789642	154.100000
283.882751	153.840000
283.975830	154.740000
284.068909	154.340000
284.161987	155.160000
284.255066	154.460000
284.348175	155.140000
284.441254	154.600000
284.534332	155.180000
284.627441	154.420000
284.720520	154.400000
284.813599	154.260000
284.906708	154.180000
284.999786	153.280000
285.092896	153.060000
285.185974	154.140000
285.279053	153.420000
285.372192	153.680000
285.465240	154.660000
285.558380	154.800000
285.651459	154.360000
285.744568	155.680000
285.837677	155.460000
285.930756	155.380000
286.023865	155.520000
286.116943	155.000000
286.210052	154.840000
286.303162	154.740000
286.396240	154.580000
286.489349	154.240000
286.582458	154.820000
286.675568	154.240000
286.768646	154.380000
286.861755	154.820000
286.954865	155.700000
287.047974	155.260000
287.141083	155.100000
287.234161	154.880000
287.327271	154.420000
287.420380	154.380000
287.513519	154.580000
287.606598	154.820000
287.699738	154.960000
287.792816	154.900000
287.885956	154.440000
287.979034	154.200000
288.072174	154.240000
288.165283	154.540000
288.258392	154.680000
288.351501	154.360000
288.444611	154.780000
288.537720	155.140000
288.630859	154.580000
288.723969	154.520000
288.817078	155.120000
288.910187	154.980000
289.003296	154.140000
289.096436	154.040000
289.189545	154.000000
289.282654	153.380000
289.375763	153.640000
289.468903	154.160000
289.562012	154.360000
289.655121	154.160000
289.748260	154.560000
289.841400	154.860000
289.934509	154.600000
290.027649	155.020000
290.120728	155.060000
290.213898	154.760000
290.306976	154.200000
290.400146	154.300000
290.493256	153.660000
290.586395	154.000000
290.679535	154.540000
290.772644	154.540000
290.865784	153.760000
290.958893	153.860000
291.052032	153.580000
291.145172	153.440000
291.238281	152.980000
291.331421	153.500000
291.424561	154.160000
291.517670	153.960000
291.610809	154.120000
291.703949	154.300000
291.797089	154.580000
291.890228	153.940000
291.983337	154.140000
292.076477	153.780000
292.169617	154.220000
292.262756	154.100000
292.355927	153.980000
292.449036	153.880000
292.542206	153.960000
292.635315	153.780000
292.728485	154.340000
292.821625	154.320000
292.914764	155.240000
293.007904	155.340000
293.101044	155.320000
293.194183	154.900000
293.287323	155.140000
293.380463	154.340000
293.473602	154.180000
293.566742	154.380000
293.659882	154.560000
293.753021	154.620000
293.846191	154.500000
293.939331	154.240000
294.032471	154.220000
294.125610	153.740000
294.218781	154.080000
294.311920	154.680000
294.405060	154.980000
294.498230	154.720000
294.591370	154.860000
294.684540	154.100000
294.777679	153.040000
294.870850	153.020000
294.963959	152.860000
295.057159	152.780000
295.150299	153.280000
295.243469	153.660000
295.336609	153.400000
295.429779	153.540000
295.522919	153.820000
295.616089	153.620000
295.709229	154.200000
295.802399	154.340000
295.895569	154.220000
295.988708	153.960000
296.081879	154.500000
296.175018	154.020000
296.268188	154.140000
296.361359	154.760000
296.454529	155.120000
296.547668	154.600000
296.640839	154.780000
296.734009	154.540000
296.827179	154.320000
296.920319	154.540000
297.013519	154.320000
297.106659	154.500000
297.199860	154.340000
297.292999	154.080000
297.386200	153.560000
297.479309	153.660000
297.572510	153.320000
297.665680	153.340000
297.758850	153.680000
297.852020	153.600000
297.945190	153.420000
298.038361	153.280000
298.131531	154.560000
298.224701	154.260000
298.317871	154.160000
298.411072	153.980000
298.504242	154.100000
298.597412	153.060000
298.690582	153.180000
298.783752	153.060000
298.876923	154.080000
298.970093	154.080000
299.063293	154.560000
299.156464	154.720000
299.249634	155.240000
299.342834	154.740000
299.436005	155.180000
299.529205	154.640000
299.622345	154.480000
299.715576	153.740000
299.808716	153.580000
299.901917	153.320000
299.995117	153.760000
300.088287	154.020000
300.181488	154.140000
300.274658	154.220000
300.367828	154.160000
300.461029	153.860000
300.554199	154.120000
300.647400	154.260000
300.740601	154.500000
300.833771	154.380000
300.926971	154.720000
301.020142	154.240000
301.113342	154.240000
301.206512	154.340000
301.299713	154.840000
301.392914	154.740000
301.486084	154.880000
301.579285	155.020000
301.672516	155.080000
301.765686	154.580000
301.858887	154.780000
301.952057	154.580000
302.045288	154.380000
302.138458	154.020000
302.231659	153.720000
302.324860	153.180000
302.418060	152.760000
302.511261	152.700000
302.604462	153.120000
302.697662	153.280000
302.790863	153.080000
302.884064	153.060000
302.977264	153.200000
303.070465	153.140000
303.163666	154.020000
303.256866	154.460000
303.350067	154.460000
303.443268	154.420000
303.536469	154.800000
303.629669	154.000000
303.722870	154.000000
303.816071	154.100000
303.909271	154.080000
304.002472	153.000000
304.095673	152.700000
304.188934	152.160000
304.282104	153.340000
304.375336	153.400000
304.468506	153.760000
304.561768	153.980000
304.654968	154.600000
304.748169	153.420000
304.841370	153.180000
304.934601	153.780000
305.027802	153.780000
305.121002	153.340000
305.214233	153.520000
305.307434	153.600000
305.400665	153.940000
305.493866	153.580000
305.587097	154.100000
305.680298	154.140000
305.773499	154.920000
305.866730	154.120000
305.959930	154.940000
306.053162	154.920000
306.146393	154.700000
306.239594	153.900000
306.332825	154.140000
306.426025	154.420000
306.519287	153.980000
306.612488	154.120000
306.705719	154.080000
306.798920	153.920000
306.892181	153.140000
306.985352	152.860000
307.078613	152.340000
307.171844	153.040000
307.265045	152.660000
307.358276	152.320000
307.451508	152.800000
307.544739	153.560000
307.637970	152.920000
307.731201	153.100000
307.824402	154.280000
307.917633	154.580000
308.010864	155.060000
308.104095	155.720000
308.197327	155.840000
308.290558	155.500000
308.383789	155.060000
308.477020	154.440000
308.570251	153.420000
308.663483	152.860000
308.756714	152.480000
308.849976	152.520000
308.943176	153.080000
309.036438	153.320000
309.129639	153.320000
309.222900	153.340000
309.316101	153.380000
309.409393	152.600000
309.502625	152.600000
309.595856	153.100000
309.689087	153.200000
309.782318	153.160000
309.875580	153.780000
309.968811	154.000000
310.062042	153.660000
310.155273	153.440000
310.248535	153.980000
310.341766	153.600000
310.434998	153.340000
310.528259	153.100000
310.621490	153.440000
310.714722	152.820000
310.807983	152.740000
310.901215	152.940000
310.994476	153.460000
311.087708	153.200000
311.181000	153.500000
311.274200	153.220000
311.367462	153.300000
311.460693	152.780000
311.553986	153.740000
311.647186	153.960000
311.740479	154.820000
311.833710	154.660000
311.926971	155.020000
312.020203	153.880000
312.113464	153.300000
312.206726	152.160000
312.299957	152.640000
312.393219	153.320000
312.486481	153.820000
312.579712	154.040000
312.672974	154.460000
312.766235	153.800000
312.859497	153.260000
312.952759	152.920000
313.045990	153.620000
313.139252	153.320000
313.232513	153.760000
313.325775	153.820000
313.419037	153.640000
313.512299	152.620000
313.605530	153.520000
313.698822	153.600000
313.792053	153.880000
313.885345	153.660000
313.978577	154.180000
314.071869	153.600000
314.165131	153.580000
314.258392	153.680000
314.351654	154.100000
314.444916	153.340000
314.538177	153.800000
314.631439	154.220000
314.724701	154.060000
314.817993	153.640000
314.911255	154.240000
315.004517	153.540000
315.097778	153.200000
315.191040	153.520000
315.284302	154.180000
315.377594	153.620000
315.470856	153.860000
315.564117	153.340000
315.657379	152.680000
315.750671	152.220000
315.843933	152.920000
315.937195	152.580000
316.030518	152.760000
316.123749	152.780000
316.217041	153.680000
316.310303	153.420000
316.403595	153.980000
316.496857	154.260000
316.590149	154.620000
316.683411	153.780000
316.776703	153.760000
316.869965	153.620000
316.963257	153.360000
317.056519	152.900000
317.149811	152.760000
317.243073	152.880000
317.336365	152.940000
317.429626	153.300000
317.522919	153.740000
317.616180	154.100000
317.709473	153.580000
317.802765	153.560000
317.896027	153.420000
317.989319	153.660000
318.082611	153.460000
318.175873	153.680000
318.269165	153.860000
318.362488	153.920000
318.455750	153.680000
318.549042	153.840000
318.642303	154.300000
318.735626	153.940000
318.828888	153.680000
318.922211	153.220000
319.015472	153.900000
319.108765	152.860000
319.202057	152.600000
319.295349	153.080000
319.388641	153.160000
319.481934	152.640000
319.575226	153.380000
319.668518	153.840000
319.761810	153.860000
319.855103	153.960000
319.948395	153.960000
320.041687	153.940000
320.134979	153.880000
320.228271	153.660000
320.321564	153.640000
320.414856	153.680000
320.508148	153.160000
320.601440	153.280000
320.694763	152.960000
320.788025	153.860000
320.881348	153.920000
320.974640	154.420000
321.067963	153.440000
321.161224	153.840000
321.254547	152.780000
321.347839	153.300000
321.441162	152.860000
321.534454	153.880000
321.627747	153.440000
321.721069	153.980000
321.814362	153.560000
321.907654	153.900000
322.000946	153.700000
322.094269	154.460000
322.187561	154.280000
322.280884	154.500000
322.374176	154.580000
322.467468	154.900000
322.560791	154.720000
322.654083	155.140000
322.747406	155.140000
322.840698	155.540000
322.934021	155.640000
323.027344	155.940000
323.120636	155.600000
323.213959	155.380000
323.307251	154.740000
323.400574	154.540000
323.493866	153.780000
323.587219	153.760000
323.680511	154.040000
323.773834	154.140000
323.867157	154.200000
323.960449	154.500000
324.053772	153.980000
324.147095	153.580000
324.240387	154.400000
324.333710	154.360000
324.427032	154.280000
324.520355	154.620000
324.613647	154.400000
324.706970	153.600000
324.800293	153.480000
324.893616	153.760000
324.986938	153.980000
325.080231	153.980000
325.173553	154.580000
325.266876	155.080000
325.360199	154.780000
325.453522	154.420000
325.546875	154.020000
325.640167	153.940000
325.733521	153.960000
325.826813	154.260000
325.920166	154.160000
326.013489	154.580000
326.106812	153.680000
326.200134	153.060000
326.293457	152.620000
326.386780	152.700000
326.480103	152.600000
326.573425	152.840000
326.666748	152.940000
326.760071	153.120000
326.853424	153.320000
326.946747	153.720000
327.040070	154.500000
327.133392	154.320000
327.226715	153.540000
327.320068	153.080000
327.413391	153.160000
327.506714	151.960000
327.600037	151.840000
327.693390	152.380000
327.786713	152.360000
327.880066	152.340000
327.973358	153.020000
328.066742	153.900000
328.160034	154.100000
328.253418	154.560000
328.346710	153.960000
328.440063	153.660000
328.533417	153.000000
328.626740	153.240000
328.720093	153.240000
328.813416	153.400000
328.906769	153.660000
329.000092	153.960000
329.093445	153.740000
329.186768	153.560000
329.280121	154.080000
329.373444	154.400000
329.466797	154.420000
329.560120	154.320000
329.653473	154.340000
329.746796	153.820000
329.840149	153.440000
329.933502	152.920000
330.026825	152.740000
330.120178	152.460000
330.213562	152.520000
330.306854	152.660000
330.400238	152.700000
330.493561	152.640000
330.586945	153.600000
330.680237	154.060000
330.773621	154.000000
330.866974	154.220000
330.960327	154.800000
331.053680	154.220000
331.147003	154.000000
331.240356	154.460000
331.333710	154.600000
331.427063	154.040000
331.520416	153.980000
331.613770	153.820000
331.707123	153.760000
331.800476	153.840000
331.893829	154.860000
331.987152	155.040000
332.080505	155.340000
332.173859	154.980000
332.267212	154.400000
332.360565	153.740000
332.453918	153.280000
332.547333	152.740000
332.640656	152.800000
332.734039	152.840000
332.827362	152.660000
332.920746	153.240000
333.014069	153.580000
333.107452	153.940000
333.200806	154.500000
333.294159	154.660000
333.387543	154.040000
333.480896	153.760000
333.574249	153.380000
333.667603	152.840000
333.760956	152.980000
333.854340	153.100000
333.947693	153.200000
334.041046	153.440000
334.134430	154.100000
334.227783	154.020000
334.321136	154.280000
334.414520	154.020000
334.507874	154.120000
334.601227	154.000000
334.694611	153.620000
334.787964	153.460000
334.881348	153.940000
334.974701	153.680000
335.068085	153.160000
335.161438	153.720000
335.254822	153.700000
335.348175	153.700000
335.441559	153.200000
335.534943	153.920000
335.628296	153.320000
335.721680	153.220000
335.815033	153.380000
335.908417	154.020000
336.001770	153.980000
336.095154	154.120000
336.188538	154.340000
336.281891	153.820000
336.375275	153.240000
336.468658	152.760000
336.562012	152.940000
336.655396	153.100000
336.748779	153.560000
336.842133	153.860000
336.935516	154.260000
337.028900	154.060000
337.122284	154.060000
337.215637	154.260000
337.309021	154.300000
337.402435	153.840000
337.495789	153.720000
337.589203	153.300000
337.682526	153.220000
337.775940	153.360000
337.869324	153.400000
337.962708	153.020000
338.056091	153.400000
338.149475	152.560000
338.242859	152.620000
338.336243	152.760000
338.429626	153.360000
338.523010	153.400000
338.616394	153.680000
338.709778	153.760000
338.803162	153.660000
338.896545	153.740000
338.989929	153.060000
339.083313	153.200000
339.176697	152.820000
339.270081	152.700000
339.363464	153.360000
339.456848	153.940000
339.550232	153.300000
339.643616	152.940000
339.737030	152.900000
339.830383	151.980000
339.923828	152.180000
340.017181	152.840000
340.110596	153.260000
340.203949	153.220000
340.297363	153.240000
340.390778	153.000000
340.484161	152.860000
340.577545	152.740000
340.670959	153.100000
340.764343	153.200000
340.857727	153.380000
340.951111	152.820000
341.044525	153.200000
341.137909	152.680000
341.231293	152.560000
341.324707	152.140000
341.418091	153.480000
341.511505	153.360000
341.604889	153.740000
341.698303	153.920000
341.791687	153.920000
341.885071	153.340000
341.978485	153.040000
342.071899	153.640000
342.165283	153.760000
342.258698	154.500000
342.352081	154.540000
342.445496	155.380000
342.538879	154.900000
342.632324	154.620000
342.725708	154.260000
342.819122	153.980000
342.912506	153.180000
343.005920	153.100000
343.099335	153.920000
343.192719	153.620000
343.286133	153.700000
343.379547	153.980000
343.472931	154.240000
343.566345	153.400000
343.659760	153.820000
343.753143	153.520000
343.846558	153.240000
343.939972	153.000000
344.033386	153.440000
344.126770	152.920000
344.220184	153.280000
344.313599	153.860000
344.407043	153.920000
344.500427	153.820000
344.593872	154.660000
344.687225	154.380000
344.780670	153.600000
344.874054	153.320000
344.967499	153.340000
345.060913	152.880000
345.154327	152.840000
345.247742	153.140000
345.341156	153.100000
345.434570	153.000000
345.527985	153.020000
345.621399	153.440000
345.714813	153.340000
345.808228	153.840000
345.901642	153.660000
345.995056	153.280000
346.088470	153.160000
346.181885	153.500000
346.275299	153.080000
346.368713	152.880000
346.462128	152.860000
346.555573	152.740000
346.648987	152.740000
346.742401	152.840000
346.835815	153.700000
346.929260	153.340000
347.022644	153.380000
347.116119	153.540000
347.209503	153.860000
347.302948	154.320000
347.396362	155.280000
347.489807	155.460000
347.583221	155.740000
347.676636	155.160000
347.770050	153.660000
347.863495	153.080000
347.956909	152.900000
348.050323	152.160000
348.143768	152.420000
348.237183	152.700000
348.330597	153.240000
348.424042	153.760000
348.517456	154.360000
348.610901	154.640000
348.704315	154.500000
348.797760	153.820000
348.891174	153.000000
348.984619	152.180000
349.078033	152.240000
349.171448	152.880000
349.264923	152.980000
349.358337	153.320000
349.451782	153.700000
349.545197	153.020000
349.638641	152.460000
349.732086	152.140000
349.825500	152.780000
349.918945	152.440000
350.012390	153.240000
350.105804	154.040000
350.199249	154.640000
350.292664	154.440000
350.386108	154.640000
350.479553	154.940000
350.572968	154.700000
350.666412	154.900000
350.759857	154.660000
350.853302	155.400000
350.946716	154.580000
351.040161	154.600000
351.133606	154.360000
351.227081	154.180000
351.320465	154.520000
351.413940	154.860000
351.507355	154.580000
351.600830	154.500000
351.694244	154.300000
351.787720	153.640000
351.881104	153.560000
351.974579	153.560000
352.067993	154.380000
352.161469	154.540000
352.254883	153.900000
352.348358	153.640000
352.441803	153.500000
352.535248	152.720000
352.628693	153.160000
352.722137	153.260000
352.815582	153.480000
352.909027	153.580000
353.002472	153.600000
353.095917	153.400000
353.189362	153.840000
353.282806	153.700000
353.376251	153.740000
353.469696	153.300000
353.563141	153.620000
353.656586	153.340000
353.750061	152.760000
353.843475	152.380000
353.936981	153.480000
354.030396	152.780000
354.123871	152.940000
354.217285	154.220000
354.310760	154.880000
354.404175	154.300000
354.497681	154.180000
354.591095	153.940000
354.684570	152.460000
354.777985	151.880000
354.871490	151.760000
354.964935	152.500000
355.058380	153.100000
355.151855	153.400000
355.245300	153.800000
355.338745	154.080000
355.432220	153.900000
355.525665	153.000000
355.619110	153.900000
355.712585	153.560000
355.806030	153.440000
355.899475	152.840000
355.992950	153.560000
356.086426	153.780000
356.179871	153.820000
356.273346	153.820000
356.366791	154.500000
356.460266	154.440000
356.553711	153.660000
356.647186	153.920000
356.740631	153.660000
356.834106	153.180000
356.927551	153.380000
357.021027	153.340000
357.114471	153.340000
357.207947	153.540000
357.301422	153.720000
357.394867	153.560000
357.488342	153.800000
357.581818	153.920000
357.675262	154.140000
357.768738	154.300000
357.862213	153.540000
357.955658	153.900000
358.049133	153.560000
358.142609	153.840000
358.236053	153.360000
358.329529	154.100000
358.423035	154.000000
358.516449	153.860000
358.609955	154.040000
358.703400	155.040000
358.796906	154.880000
358.890350	154.200000
358.983826	154.560000
359.077271	153.620000
359.170776	152.960000
359.264221	152.760000
359.357727	153.220000
359.451172	153.620000
359.544647	153.840000
359.638123	153.580000
359.731598	153.960000
359.825073	154.300000
359.918549	153.980000
360.012024	154.160000
360.105499	154.040000
360.198975	154.040000
360.292450	153.840000
360.385925	154.020000
360.479401	153.780000
360.572876	154.180000
360.666351	154.140000
360.759857	153.880000
360.853302	153.300000
360.946808	152.940000
361.040253	152.720000
361.133759	152.600000
361.227203	153.020000
361.320709	153.220000
361.414154	153.700000
361.507660	154.160000
361.601105	154.620000
361.694641	154.820000
361.788086	154.620000
361.881592	155.060000
361.975067	154.620000
362.068542	154.520000
362.162018	154.380000
362.255524	154.180000
362.348999	153.780000
362.442474	153.960000
362.535950	153.360000
362.629456	152.860000
362.722931	153.040000
362.816406	153.420000
362.909882	153.880000
363.003387	153.620000
363.096863	154.100000
363.190338	154.160000
363.283875	153.640000
363.377319	153.280000
363.470825	154.260000
363.564301	153.520000
363.657806	153.800000
363.751282	153.580000
363.844788	154.260000
363.938232	153.360000
364.031769	154.080000
364.125214	154.000000
364.218750	154.680000
364.312225	153.560000
364.405731	153.640000
364.499207	153.180000
364.592712	152.820000
364.686188	152.520000
364.779694	152.800000
364.873169	153.100000
364.966675	153.260000
365.060150	153.640000
365.153656	154.280000
365.247131	154.540000
365.340637	154.620000
365.434143	155.220000
365.527618	155.260000
365.621155	153.980000
365.714600	153.920000
365.808136	154.080000
365.901611	152.860000
365.995117	152.560000
366.088593	152.960000
366.182129	152.620000
366.275604	152.500000
366.369110	152.800000
366.462585	152.840000
366.556122	153.460000
366.649567	153.620000
366.743103	153.740000
366.836609	153.680000
366.930115	153.980000
367.023590	153.960000
367.117096	153.660000
367.210602	153.520000
367.304108	154.260000
367.397614	154.680000
367.491119	154.520000
367.584595	154.760000
367.678101	155.060000
367.771606	154.620000
367.865112	153.880000
367.958649	153.340000
368.052124	153.060000
368.145660	152.860000
368.239136	153.160000
368.332672	153.500000
368.426147	154.060000
368.519684	154.320000
368.613159	154.380000
368.706696	153.980000
368.800171	153.920000
368.893707	153.580000
368.987183	153.460000
369.080719	153.160000
369.174225	153.020000
369.267731	153.060000
369.361237	153.140000
369.454742	153.080000
369.548248	153.700000
369.641754	153.720000
369.735260	153.640000
369.828766	153.000000
369.922272	153.760000
370.015808	153.140000
370.109314	152.840000
370.202820	152.780000
370.296356	153.660000
370.389832	153.140000
370.483368	152.800000
370.576874	152.760000
370.670410	152.720000
370.763885	152.020000
370.857422	152.080000
370.950928	152.400000
371.044464	153.480000
371.137939	153.660000
371.231476	154.100000
371.324982	154.660000
371.418518	154.900000
371.512024	154.440000
371.605560	154.060000
371.699066	154.260000
371.792572	153.400000
371.886108	153.640000
371.979614	153.440000
372.073120	154.180000
372.166656	153.940000
372.260162	154.260000
372.353668	153.540000
372.447205	153.360000
372.540710	153.020000
372.634277	152.920000
372.727753	153.120000
372.821320	153.520000
372.914795	153.440000
373.008362	153.340000
373.101837	153.520000
373.195404	153.340000
373.288879	153.120000
373.382446	154.080000
373.475922	154.140000
373.569489	154.700000
373.662964	155.020000
373.756531	155.380000
373.850037	155.320000
373.943573	155.040000
374.037109	154.040000
374.130615	154.300000
374.224152	154.240000
374.317657	153.860000
374.411194	154.640000
374.504730	154.640000
374.598236	154.100000
374.691772	153.860000
374.785309	153.740000
374.878815	152.620000
374.972351	153.220000
375.065887	153.120000
375.159454	153.780000
375.252930	153.620000
375.346497	154.280000
375.440002	154.700000
375.533569	154.640000
375.627045	153.960000
375.720612	154.040000
375.814117	154.140000
375.907684	153.440000
376.001160	153.180000
376.094727	152.740000
376.188232	153.460000
376.281799	153.440000
376.375336	153.520000
376.468872	154.460000
376.562408	155.200000
376.655914	154.740000
376.749451	154.680000
376.842987	155.020000
376.936523	154.400000
377.030060	154.220000
377.123596	154.440000
377.217133	154.060000
377.310669	153.980000
377.404205	154.460000
377.497772	154.960000
377.591278	154.500000
377.684845	155.500000
377.778351	155.680000
377.871918	155.200000
377.965424	154.380000
378.058990	154.480000
378.152496	153.880000
378.246063	153.740000
378.339569	154.260000
378.433136	154.380000
378.526642	154.380000
378.620209	154.180000
378.713745	153.680000
378.807312	154.040000
378.900848	154.160000
378.994385	154.440000
379.087921	153.740000
379.181458	154.180000
379.274994	153.140000
379.368530	153.140000
379.462097	153.080000
379.555634	154.200000
379.649170	153.460000
379.742706	153.480000
379.836273	153.840000
379.929810	153.420000
380.023376	152.860000
380.116882	153.080000
380.210449	153.220000
380.303986	152.500000
380.397552	152.420000
380.491058	152.760000
380.584656	152.520000
380.678162	152.860000
380.771729	153.040000
380.865265	154.000000
380.958832	154.160000
381.052368	154.800000
381.145935	155.080000
381.239471	155.520000
381.333008	155.060000
381.426575	154.800000
381.520111	154.980000
381.613647	154.900000
381.707214	154.580000
381.800751	153.960000
381.894318	154.340000
381.987854	153.680000
382.081421	153.140000
382.174988	153.500000
382.268524	153.580000
382.362091	153.460000
382.455627	154.360000
382.549194	154.280000
382.642731	153.640000
382.736298	153.580000
382.829834	153.020000
382.923401	153.500000
383.016937	153.900000
383.110504	154.240000
383.204041	154.800000
383.297607	155.220000
383.391174	153.940000
383.484741	154.420000
383.578278	153.940000
383.671844	153.120000
383.765411	152.440000
383.858948	153.140000
383.952515	152.560000
384.046051	153.260000
384.139618	154.040000
384.233185	154.480000
384.326721	154.080000
384.420288	154.760000
384.513855	154.520000
384.607422	154.720000
384.700989	154.860000
384.794525	154.600000
384.888123	154.360000
384.981659	154.480000
385.075226	153.980000
385.168762	153.660000
385.262360	153.900000
385.355896	152.680000
385.449463	152.440000
385.542999	152.120000
385.636597	153.120000
385.730164	153.240000
385.823730	153.540000
385.917267	153.020000
386.010834	153.620000
386.104401	153.280000
386.197968	153.680000
386.291534	154.220000
386.385101	154.660000
386.478668	154.780000
386.572235	154.400000
386.665802	153.300000
386.759338	152.640000
386.852905	152.680000
386.946472	152.280000
387.040070	152.320000
387.133606	153.000000
387.227203	153.000000
387.320740	153.040000
387.414337	152.720000
387.507874	152.500000
387.601471	152.440000
387.695007	152.440000
387.788605	152.200000
387.882141	152.380000
387.975739	152.680000
388.069275	152.320000
388.162872	152.440000
388.256439	152.580000
388.350037	152.440000
388.443604	152.440000
388.537170	152.800000
388.630737	153.940000
388.724304	154.140000
388.817871	154.120000
388.911438	154.080000
389.005005	154.180000
389.098602	153.900000
389.192169	153.660000
389.285736	154.340000
389.379333	154.240000
389.472870	153.620000
389.566467	153.400000
389.660034	153.300000
389.753632	152.520000
389.847168	152.760000
389.940765	153.620000
390.034332	153.580000
390.127930	153.200000
390.221466	153.540000
390.315063	152.760000
390.408630	151.520000
390.502228	150.680000
390.595795	151.360000
390.689362	151.280000
390.782959	152.100000
390.876526	152.940000
390.970093	153.240000
391.063690	153.700000
391.157257	153.700000
391.250824	153.940000
391.344421	153.760000
391.437988	154.140000
391.531555	154.160000
391.625153	154.500000
391.718750	154.420000
391.812317	154.360000
391.905914	154.180000
391.999481	153.940000
392.093079	153.920000
392.186615	154.000000
392.280243	154.000000
392.373779	154.220000
392.467407	154.500000
392.560944	154.200000
392.654572	153.700000
392.748108	154.140000
392.841736	154.340000
392.935303	153.700000
393.028900	153.680000
393.122467	154.120000
393.216064	153.440000
393.309631	152.680000
393.403229	152.580000
393.496796	152.840000
393.590393	151.660000
393.683990	152.080000
393.777557	152.480000
393.871155	152.840000
393.964722	152.920000
394.058350	153.660000
394.151917	153.560000
394.245514	153.520000
394.339081	154.180000
394.432678	154.320000
394.526245	154.160000
394.619873	153.940000
394.713409	154.300000
394.807037	153.280000
394.900604	153.480000
394.994202	153.620000
395.087769	154.060000
395.181396	153.500000
395.274994	154.640000
395.368561	153.900000
395.462158	154.260000
395.555756	153.820000
395.649353	153.960000
395.742920	153.160000
395.836517	153.780000
395.930115	153.000000
396.023712	153.200000
396.117279	153.640000
396.210876	153.140000
396.304474	152.920000
396.398071	153.560000
396.491669	154.000000
396.585266	153.560000
396.678833	153.800000
396.772461	153.780000
396.866028	153.500000
396.959656	153.360000
397.053223	153.440000
397.146851	153.140000
397.240417	153.200000
397.334015	153.840000
397.427582	153.360000
397.521210	153.360000
397.614807	153.780000
397.708405	153.980000
397.802002	153.360000
397.895599	154.240000
397.989197	154.180000
398.082794	154.240000
398.176392	154.060000
398.269989	154.520000
398.363586	154.480000
398.457184	155.480000
398.550781	155.920000
398.644379	156.280000
398.737976	156.420000
398.831573	157.400000
398.925201	158.480000
399.018768	161.440000
399.112396	166.440000
399.205963	175.060000
399.299591	188.460000
399.393158	209.680000
399.486786	247.700000
399.580353	316.200000
399.673981	439.140000
399.767578	634.300000
399.861206	900.200000
399.954773	1196.300000
400.048401	1446.920000
400.141998	1579.360000
400.235596	1558.540000
400.329193	1392.080000
400.422791	1128.020000
400.516418	844.980000
400.610016	603.920000
400.703613	429.280000
400.797211	314.340000
400.890808	246.560000
400.984436	208.980000
401.078033	188.260000
401.171631	175.680000
401.265259	169.540000
401.358826	165.500000
401.452484	162.820000
401.546051	161.420000
401.639679	160.180000
401.733246	159.260000
401.826904	158.100000
401.920471	156.820000
402.014099	155.940000
402.107697	155.660000
402.201324	155.080000
402.294891	155.420000
402.388550	155.940000
402.482147	155.760000
402.575745	155.440000
402.669373	155.320000
402.762970	154.580000
402.856567	153.980000
402.950195	154.440000
403.043793	154.220000
403.137390	154.820000
403.231018	154.320000
403.324615	154.960000
403.418243	154.040000
403.511841	154.620000
403.605469	154.180000
403.699066	155.000000
403.792694	154.680000
403.886292	155.080000
403.979919	154.780000
404.073517	154.420000
404.167145	154.360000
404.260712	154.320000
404.354370	154.000000
404.447937	154.180000
404.541595	154.480000
404.635162	154.540000
404.728821	154.840000
404.822418	154.160000
404.916046	153.740000
405.009644	154.040000
405.103271	154.300000
405.196899	153.840000
405.290497	154.520000
405.384125	154.880000
405.477722	154.320000
405.571350	153.500000
405.664948	153.980000
405.758575	153.780000
405.852203	153.160000
405.945801	153.260000
406.039429	153.560000
406.133057	153.040000
406.226654	153.100000
406.320312	153.200000
406.413879	153.400000
406.507538	153.360000
406.601135	153.260000
406.694763	153.660000
406.788361	153.500000
406.882019	152.980000
406.975586	153.620000
407.069244	154.260000
407.162872	153.860000
407.256470	154.080000
407.350098	154.380000
407.443726	153.580000
407.537323	152.600000
407.630951	153.120000
407.724579	153.060000
407.818207	153.400000
407.911804	153.480000
408.005432	153.740000
408.099060	153.860000
408.192688	154.080000
408.286285	153.700000
408.379913	153.400000
408.473572	153.600000
408.567169	153.020000
408.660828	153.120000
408.754395	153.020000
408.848053	153.260000
408.941650	153.360000
409.035309	152.840000
409.128906	152.680000
409.222565	152.960000
409.316132	153.000000
409.409790	152.480000
409.503387	152.860000
409.597046	152.880000
409.690674	153.000000
409.784302	153.080000
409.877930	153.400000
409.971558	153.560000
410.065186	153.520000
410.158783	153.220000
410.252411	153.240000
410.346039	153.500000
410.439667	153.440000
410.533295	153.500000
410.626923	153.620000
410.720551	153.420000
410.814209	153.660000
410.907806	153.940000
411.001465	153.520000
411.095062	153.820000
411.188721	154.020000
411.282318	153.540000
411.375977	153.020000
411.469574	153.320000
411.563232	152.960000
411.656830	152.740000
411.750488	152.620000
411.844086	152.560000
411.937744	152.820000
412.031372	152.540000
412.125000	152.540000
412.218628	152.720000
412.312256	153.640000
412.405884	154.040000
412.499512	154.020000
412.593170	154.280000
412.686798	154.360000
412.780426	153.620000
412.874054	153.500000
412.967682	153.760000
413.061310	154.220000
413.154968	154.480000
413.248566	154.640000
413.342224	154.140000
413.435852	154.180000
413.529510	153.580000
413.623108	152.880000
413.716766	152.860000
413.810364	153.200000
413.904022	153.040000
413.997650	152.880000
414.091309	153.940000
414.184906	153.940000
414.278564	153.620000
414.372192	154.100000
414.465851	154.540000
414.559479	153.820000
414.653107	154.440000
414.746735	154.260000
414.840393	154.340000
414.934021	154.420000
415.027649	154.200000
415.121277	153.960000
415.214935	154.680000
415.308563	154.780000
415.402191	154.080000
415.495850	154.380000
415.589478	153.840000
415.683136	153.320000
415.776733	153.300000
415.870422	154.220000
415.964020	153.400000
416.057678	153.980000
416.151306	154.040000
416.244965	153.600000
416.338562	152.960000
416.432251	153.980000
416.525848	154.320000
416.619507	154.560000
416.713165	154.800000
416.806793	155.020000
416.900421	155.080000
416.994080	154.280000
417.087708	154.300000
417.181366	154.280000
417.274994	154.240000
417.368622	154.260000
417.462280	154.960000
417.555908	154.680000
417.649567	154.340000
417.743195	154.480000
417.836853	154.240000
417.930481	154.160000
418.024170	154.300000
418.117767	154.960000
418.211426	155.200000
418.305054	155.380000
418.398712	154.880000
418.492340	155.120000
418.585999	155.360000
418.679626	155.100000
418.773285	154.960000
418.866913	155.340000
418.960571	155.240000
419.054230	155.020000
419.147858	155.240000
419.241516	155.400000
419.335144	154.960000
419.428802	154.680000
419.522461	154.220000
419.616089	153.560000
419.709747	153.800000
419.803375	154.040000
419.897034	154.000000
419.990662	153.900000
420.084320	154.300000
420.177979	154.300000
420.271606	154.440000
420.365295	155.020000
420.458893	155.460000
420.552582	155.720000
420.646210	155.220000
420.739868	154.660000
420.833496	154.040000
420.927155	153.300000
421.020782	152.900000
421.114471	152.540000
421.208069	152.760000
421.301758	152.980000
421.395386	153.480000
421.489044	153.380000
421.582703	153.780000
421.676361	154.520000
421.769989	154.400000
421.863647	154.680000
421.957306	155.180000
422.050934	155.480000
422.144592	155.180000
422.238251	154.780000
422.331909	154.160000
422.425537	153.780000
422.519196	153.620000
422.612854	153.000000
422.706543	152.880000
422.800140	153.460000
422.893829	153.000000
422.987457	152.440000
423.081146	152.920000
423.174744	153.720000
423.268433	153.180000
423.362061	153.640000
423.455750	153.800000
423.549347	153.800000
423.643036	153.180000
423.736664	153.960000
423.830353	153.800000
423.924011	154.540000
424.017639	153.920000
424.111298	154.140000
424.204956	153.840000
424.298615	154.080000
424.392273	153.620000
424.485931	153.920000
424.579559	153.880000
424.673218	153.540000
424.766876	153.580000
424.860535	153.280000
424.954193	153.320000
425.047882	153.940000
425.141510	154.020000
425.235199	154.100000
425.328796	154.200000
425.422485	154.360000
425.516113	153.580000
425.609802	153.660000
425.703430	153.940000
425.797119	153.740000
425.890747	153.780000
425.984436	154.180000
426.078064	154.280000
426.171753	154.020000
426.265411	154.120000
426.359070	154.240000
426.452728	153.980000
426.546356	153.960000
426.640015	153.860000
426.733673	153.860000
426.827332	153.280000
426.920990	154.120000
427.014648	153.880000
427.108307	153.920000
427.201965	154.520000
427.295624	155.240000
427.389282	154.740000
427.482941	155.120000
427.576630	155.060000
427.670258	154.420000
427.763947	154.060000
427.857574	153.720000
427.951263	153.740000
428.044922	153.740000
428.138611	154.100000
428.232239	154.760000
428.325928	155.400000
428.419556	155.760000
428.513245	155.660000
428.606903	155.740000
428.700562	155.120000
428.794220	154.520000
428.887878	153.920000
428.981537	154.260000
429.075195	154.340000
429.168854	154.580000
429.262512	154.780000
429.356201	154.700000
429.449860	154.440000
429.543518	154.220000
429.637177	154.720000
429.730835	154.720000
429.824493	154.720000
429.918182	155.100000
430.011810	154.660000
430.105530	153.760000
430.199158	153.820000
430.292847	154.060000
430.386475	153.800000
430.480164	154.020000
430.573792	153.740000
430.667511	153.860000
430.761139	153.880000
430.854828	154.080000
430.948456	154.360000
431.042145	155.080000
431.135834	154.780000
431.229492	155.040000
431.323151	155.240000
431.416809	155.180000
431.510468	155.200000
431.604156	155.020000
431.697815	154.660000
431.791473	153.980000
431.885132	153.640000
431.978821	153.840000
432.072479	154.460000
432.166138	154.820000
432.259827	155.040000
432.353485	155.500000
432.447174	155.680000
432.540802	155.140000
432.634491	155.100000
432.728149	155.440000
432.821838	155.940000
432.915466	155.260000
433.009186	155.580000
433.102814	155.040000
433.196503	154.760000
433.290131	154.220000
433.383850	154.620000
433.477509	154.820000
433.571167	155.580000
433.664856	155.920000
433.758514	156.600000
433.852173	156.680000
433.945862	156.300000
434.039520	156.280000
434.133179	155.740000
434.226868	155.100000
434.320526	154.240000
434.414185	154.760000
434.507874	154.220000
434.601562	154.900000
434.695221	154.880000
434.788910	155.560000
434.882538	155.500000
434.976257	155.160000
435.069885	154.780000
435.163574	154.920000
435.257233	154.360000
435.350922	154.120000
435.444580	154.060000
435.538269	153.840000
435.631897	154.240000
435.725616	154.980000
435.819275	155.680000
435.912964	156.560000
436.006622	156.700000
436.100311	156.280000
436.193970	155.480000
436.287628	154.980000
436.381317	154.360000
436.474976	154.000000
436.568665	153.600000
436.662323	154.020000
436.756012	153.700000
436.849670	153.600000
436.943390	153.820000
437.037018	153.660000
437.130737	153.860000
437.224365	153.940000
437.318085	154.040000
437.411713	154.300000
437.505432	154.880000
437.599060	155.060000
437.692780	155.460000
437.786407	155.520000
437.880127	155.780000
437.973755	155.200000
438.067474	154.720000
438.161133	154.820000
438.254822	155.200000
438.348480	154.280000
438.442169	155.300000
438.535828	155.680000
438.629517	155.260000
438.723175	154.760000
438.816864	155.600000
438.910553	154.700000
439.004211	154.440000
439.097900	154.100000
439.191559	154.240000
439.285248	153.300000
439.378906	153.820000
439.472626	153.240000
439.566284	153.160000
439.659973	153.200000
439.753632	153.540000
439.847321	153.920000
439.940979	154.360000
440.034698	154.720000
440.128326	154.240000
440.222046	154.140000
440.315674	152.920000
440.409393	153.080000
440.503082	152.620000
440.596741	152.960000
440.690430	153.180000
440.784088	153.460000
440.877777	152.760000
440.971466	152.920000
441.065125	152.740000
441.158813	152.620000
441.252502	152.900000
441.346161	153.500000
441.439850	153.980000
441.533539	153.700000
441.627197	154.140000
441.720886	153.800000
441.814606	153.980000
441.908234	154.260000
442.001953	154.100000
442.095612	153.740000
442.189301	154.140000
442.282959	154.180000
442.376678	153.060000
442.470306	154.180000
442.564026	154.040000
442.657684	153.940000
442.751404	153.720000
442.845032	154.960000
442.938751	154.240000
443.032440	154.520000
443.126099	154.200000
443.219788	154.720000
443.313477	154.160000
443.407166	154.480000
443.500824	154.300000
443.594513	154.720000
443.688202	154.060000
443.781891	153.440000
443.875549	153.000000
443.969238	153.120000
444.062927	153.240000
444.156647	153.200000
444.250275	153.700000
444.343994	153.860000
444.437653	153.760000
444.531372	153.600000
444.625031	153.620000
444.718719	153.700000
444.812378	153.920000
444.906097	153.460000
444.999756	152.900000
445.093445	152.760000
445.187103	152.700000
445.280823	153.140000
445.374512	153.220000
445.468201	153.700000
445.561859	153.740000
445.655548	153.700000
445.749237	153.080000
445.842926	153.320000
445.936615	153.660000
446.030304	153.720000
446.123962	153.820000
446.217651	153.400000
446.311340	153.480000
446.405029	152.940000
446.498749	152.540000
446.592407	152.220000
446.686096	153.060000
446.779755	153.040000
446.873474	153.420000
446.967133	154.120000
447.060852	154.000000
447.154510	153.840000
447.248230	153.980000
447.341858	153.580000
447.435577	153.080000
447.529236	152.940000
447.622955	152.300000
447.716644	152.100000
447.810333	152.540000
447.904022	152.840000
447.997711	153.000000
448.091400	153.700000
448.185059	153.880000
448.278748	153.740000
448.372437	153.460000
448.466125	153.720000
448.559814	153.400000
448.653503	153.820000
448.747192	154.140000
448.840912	154.580000
448.934570	154.680000
449.028290	154.920000
449.121948	154.120000
449.215637	153.340000
449.309296	153.000000
449.403015	152.780000
449.496674	152.680000
449.590393	153.200000
449.684052	153.260000
449.777771	154.180000
449.871429	153.780000
449.965149	153.560000
450.058838	153.580000
450.152527	154.020000
450.246216	153.380000
450.339905	153.700000
450.433594	153.680000
450.527283	154.200000
450.620972	153.900000
450.714661	153.860000
450.808350	153.820000
450.902039	154.380000
450.995728	154.020000
451.089417	153.800000
451.183105	153.900000
451.276794	154.460000
451.370514	153.740000
451.464172	152.740000
451.557892	152.680000
451.651550	152.740000
451.745270	151.920000
451.838928	151.600000
451.932648	151.980000
452.026306	152.860000
452.120026	152.440000
452.213684	153.240000
452.307404	153.840000
452.401062	153.860000
452.494781	153.720000
452.588470	153.820000
452.682159	153.220000
452.775848	153.220000
452.869537	153.000000
452.963226	152.480000
453.056915	152.460000
453.150604	152.740000
453.244293	152.860000
453.337982	153.800000
453.431671	154.320000
453.525360	154.800000
453.619049	154.780000
453.712769	154.800000
453.806427	153.860000
453.900146	153.180000
453.993805	153.140000
454.087555	153.280000
454.181213	153.200000
454.274933	153.840000
454.368591	154.000000
454.462311	153.900000
454.555969	153.720000
454.649689	154.540000
454.743347	153.640000
454.837067	154.540000
454.930756	154.780000
455.024445	154.960000
455.118134	154.260000
455.211853	155.000000
455.305542	154.300000
455.399231	153.880000
455.492920	153.700000
455.586609	153.700000
455.680298	153.740000
455.773987	153.440000
455.867676	153.520000
455.961365	153.740000
456.055084	153.560000
456.148773	153.240000
456.242493	153.540000
456.336151	153.500000
456.429871	153.680000
456.523529	154.160000
456.617249	154.060000
456.710907	154.560000
456.804626	154.420000
456.898315	153.760000
456.992035	153.600000
457.085693	153.560000
457.179413	152.600000
457.273102	153.840000
457.366791	154.300000
457.460480	154.460000
457.554199	155.240000
457.647888	155.580000
457.741577	154.860000
457.835266	154.880000
457.928955	154.960000
458.022644	155.040000
458.116364	155.600000
458.210052	155.120000
458.303741	155.080000
458.397461	154.560000
458.491119	153.960000
458.584839	153.540000
458.678528	153.460000
458.772247	153.080000
458.865906	153.240000
458.959625	154.080000
459.053284	154.220000
459.147003	153.960000
459.240692	154.800000
459.334412	154.880000
459.428070	154.180000
459.521790	153.800000
459.615479	153.860000
459.709198	153.860000
459.802887	153.240000
459.896576	153.180000
459.990265	153.660000
460.083954	154.100000
460.177673	153.440000
460.271362	153.920000
460.365051	154.000000
460.458740	153.660000
460.552429	153.080000
460.646149	152.940000
460.739838	152.740000
460.833527	152.800000
460.927246	152.580000
461.020905	152.840000
461.114655	152.900000
461.208313	153.040000
461.302032	152.400000
461.395691	152.480000
461.489441	152.660000
461.583099	152.760000
461.676819	152.620000
461.770477	153.320000
461.864197	153.140000
461.957916	152.900000
462.051605	152.180000
462.145294	152.940000
462.238983	152.620000
462.332703	153.340000
462.426392	154.160000
462.520081	154.800000
462.613770	154.080000
462.707489	154.200000
462.801178	154.000000
462.894867	153.260000
462.988556	153.040000
463.082275	153.420000
463.175964	153.160000
463.269684	153.320000
463.363342	153.420000
463.457092	153.040000
463.550751	153.160000
463.644470	153.400000
463.738129	153.180000
463.831879	153.320000
463.925537	154.320000
464.019257	154.140000
464.112946	153.920000
464.206665	153.720000
464.300323	153.520000
464.394043	153.080000
464.487762	153.100000
464.581451	153.440000
464.675140	153.420000
464.768829	153.960000
464.862549	154.160000
464.956238	154.000000
465.049927	154.160000
465.143646	154.300000
465.237335	153.900000
465.331024	154.100000
465.424713	154.180000
465.518433	154.000000
465.612152	153.800000
465.705811	153.780000
465.799561	153.540000
465.893219	153.180000
465.986938	153.220000
466.080597	153.020000
466.174347	153.340000
466.268005	153.420000
466.361725	153.540000
466.455414	153.480000
466.549133	153.200000
466.642792	152.940000
466.736542	152.500000
466.830231	152.700000
466.923920	152.660000
467.017609	153.280000
467.111328	153.040000
467.205017	153.340000
467.298706	153.320000
467.392426	153.420000
467.486115	153.280000
467.579803	153.120000
467.673523	153.440000
467.767212	153.720000
467.860901	153.480000
467.954651	153.880000
468.048309	154.260000
468.142029	154.080000
468.235718	153.760000
468.329437	153.760000
468.423096	153.660000
468.516846	153.340000
468.610504	152.960000
468.704224	152.640000
468.797913	152.840000
468.891632	152.740000
468.985291	153.240000
469.079010	153.320000
469.172729	153.040000
469.266418	153.080000
469.360107	153.320000
469.453827	152.840000
469.547516	152.960000
469.641205	153.720000
469.734924	154.100000
469.828613	154.340000
469.922302	154.660000
470.016022	154.680000
470.109711	154.220000
470.203430	153.420000
470.297150	152.340000
470.390808	152.780000
470.484558	152.560000
470.578217	153.200000
470.671936	153.880000
470.765625	155.080000
470.859344	154.460000
470.953003	154.820000
471.046753	154.240000
471.140411	153.380000
471.234131	153.240000
471.327820	153.860000
471.421539	153.640000
471.515228	153.460000
471.608948	153.940000
471.702637	153.200000
471.796326	152.580000
471.890045	152.900000
471.983734	153.200000
472.077423	152.900000
472.171143	153.540000
472.264832	153.580000
472.358521	153.440000
472.452240	153.120000
472.545929	153.940000
472.639648	153.660000
472.733337	154.140000
472.827057	154.240000
472.920746	154.560000
473.014465	154.540000
473.108124	154.440000
473.201874	154.520000
473.295532	154.500000
473.389252	154.880000
473.482941	154.900000
473.576660	154.480000
473.670319	154.160000
473.764069	154.260000
473.857727	154.240000
473.951477	154.320000
474.045166	155.400000
474.138855	155.120000
474.232574	154.960000
474.326263	154.980000
474.419952	154.740000
474.513672	154.180000
474.607361	154.280000
474.701050	154.460000
474.794769	154.440000
474.888458	154.600000
474.982178	154.840000
475.075867	155.240000
475.169586	155.140000
475.263275	154.720000
475.356995	154.680000
475.450653	154.280000
475.544403	153.560000
475.638062	154.380000
475.731812	154.280000
475.825470	153.960000
475.919189	154.060000
476.012878	154.380000
476.106598	153.380000
476.200256	153.980000
476.294006	153.920000
476.387695	153.920000
476.481384	153.980000
476.575104	153.820000
476.668793	153.340000
476.762512	152.960000
476.856201	153.580000
476.949890	153.260000
477.043610	153.080000
477.137299	153.080000
477.230988	153.720000
477.324707	153.120000
477.418396	153.720000
477.512146	154.220000
477.605804	154.260000
477.699524	154.000000
477.793213	153.760000
477.886932	153.480000
477.980591	153.040000
478.074341	152.940000
478.167999	152.640000
478.261749	153.060000
478.355408	152.920000
478.449127	153.420000
478.542816	154.240000
478.636536	155.240000
478.730225	155.060000
478.823944	155.460000
478.917633	155.500000
479.011322	155.540000
479.105042	154.920000
479.198730	155.320000
479.292450	155.040000
479.386139	155.100000
479.479828	154.940000
479.573547	155.480000
479.667267	154.920000
479.760925	154.820000
479.854675	154.760000
479.948334	154.580000
480.042084	153.740000
480.135742	154.200000
480.229462	153.880000
480.323151	153.820000
480.416870	153.020000
480.510529	153.280000
480.604279	152.580000
480.697937	153.100000
480.791656	152.600000
480.885345	152.900000
480.979065	152.780000
481.072754	153.340000
481.166473	153.640000
481.260132	154.080000
481.353882	154.140000
481.447540	154.000000
481.541260	154.020000
481.635010	153.420000
481.728668	153.440000
481.822388	153.200000
481.916077	153.580000
482.009796	153.540000
482.103485	153.680000
482.197205	153.560000
482.290863	153.920000
482.384613	153.840000
482.478271	153.500000
482.571991	153.380000
482.665680	153.520000
482.759399	154.080000
482.853058	154.440000
482.946808	154.500000
483.040466	154.780000
483.134216	154.360000
483.227875	153.360000
483.321594	153.500000
483.415283	153.640000
483.509003	153.540000
483.602661	153.700000
483.696411	154.400000
483.790070	153.880000
483.883789	153.880000
483.977478	154.080000
484.071198	154.100000
484.164917	153.820000
484.258606	153.420000
484.352325	153.640000
484.445984	153.920000
484.539734	153.700000
484.633392	153.280000
484.727142	154.160000
484.820801	153.880000
484.914520	153.240000
485.008209	153.700000
485.101929	154.100000
485.195587	153.500000
485.289337	153.680000
485.382996	154.060000
485.476715	154.020000
485.570404	154.700000
485.664124	154.660000
485.757782	155.000000
485.851532	154.560000
485.945190	154.300000
486.038910	153.860000
486.132599	154.120000
486.226318	153.480000
486.319977	153.480000
486.413727	154.120000
486.507446	153.500000
486.601105	153.160000
486.694855	153.300000
486.788513	153.080000
486.882233	152.700000
486.975922	152.940000
487.069641	152.980000
487.163300	152.880000
487.257050	154.340000
487.350708	154.040000
487.444427	154.000000
487.538116	153.940000
487.631836	153.780000
487.725494	152.820000
487.819214	152.980000
487.912903	152.940000
488.006622	153.440000
488.100281	153.520000
488.194031	153.640000
488.287689	154.220000
488.381409	154.960000
488.475098	154.500000
488.568817	154.780000
488.662476	154.240000
488.756226	153.460000
488.849945	152.360000
488.943604	152.680000
489.037354	152.640000
489.131012	152.940000
489.224731	152.840000
489.318390	153.020000
489.412140	153.020000
489.505798	152.860000
489.599518	152.520000
489.693207	153.000000
489.786926	152.880000
489.880585	152.580000
489.974335	152.980000
490.067993	154.100000
490.161713	154.040000
490.255371	155.060000
490.349121	155.020000
490.442780	154.480000
490.536499	153.420000
490.630188	153.520000
490.723907	152.820000
490.817566	153.180000
490.911285	153.440000
491.004974	153.340000
491.098694	152.880000
491.192413	153.500000
491.286102	153.100000
491.379822	153.160000
491.473480	153.740000
491.567200	153.580000
491.660889	152.720000
491.754608	152.880000
491.848267	152.580000
491.941986	152.220000
492.035675	152.520000
492.129395	153.080000
492.223053	152.820000
492.316772	153.100000
492.410461	153.000000
492.504181	153.160000
492.597839	152.680000
492.691559	153.200000
492.785248	153.500000
492.878967	153.820000
492.972626	153.460000
493.066345	153.720000
493.160034	153.020000
493.253754	152.780000
493.347412	152.400000
493.441132	152.740000
493.534882	153.260000
493.628540	153.880000
493.722260	153.960000
493.815918	154.380000
493.909668	154.460000
494.003326	154.740000
494.097046	154.540000
494.190704	154.280000
494.284454	154.100000
494.378113	154.240000
494.471832	153.680000
494.565491	153.500000
494.659210	153.820000
494.752899	153.960000
494.846619	153.860000
494.940277	153.980000
495.033997	154.400000
495.127686	154.140000
495.221405	153.980000
495.315063	154.020000
495.408783	154.020000
495.502441	153.940000
495.596191	153.880000
495.689850	153.880000
495.783569	154.100000
495.877228	154.180000
495.970947	153.720000
496.064697	153.900000
496.158356	154.580000
496.252075	154.140000
496.345734	153.920000
496.439453	155.260000
496.533142	155.160000
496.626862	155.400000
496.720520	155.580000
496.814240	155.620000
496.907898	154.560000
497.001617	154.700000
497.095306	153.960000
497.189026	153.840000
497.282684	153.940000
497.376404	154.740000
497.470062	154.520000
497.563782	154.440000
497.657471	154.600000
497.751190	154.220000
497.844849	153.700000
497.938568	153.940000
498.032227	153.880000
498.125946	153.840000
498.219635	153.920000
498.313354	153.940000
498.407074	153.740000
498.500732	154.040000
498.594452	154.120000
498.688110	154.100000
498.781830	153.460000
498.875519	153.320000
498.969238	153.020000
499.062897	152.660000
499.156616	153.040000
499.250275	153.500000
499.343994	153.240000
499.437653	153.400000
499.531372	153.760000
499.625061	154.120000
499.718781	154.540000
499.812439	155.140000
499.906158	154.760000
499.999817	154.460000
500.093536	153.600000
500.187195	153.460000
500.280914	153.300000
500.374573	153.580000
500.468323	153.300000
500.561981	153.720000
500.655701	153.040000
500.749420	153.100000
500.843079	153.140000
500.936798	153.460000
501.030457	153.960000
501.124176	154.300000
501.217834	154.080000
501.311554	154.080000
501.405212	154.000000
501.498962	152.700000
501.592621	152.800000
501.686340	153.260000
501.779999	153.460000
501.873718	153.500000
501.967377	153.940000
502.061096	154.140000
502.154755	153.360000
502.248474	153.140000
502.342133	153.280000
502.435852	153.480000
502.529510	153.940000
502.623230	154.920000
502.716888	154.300000
502.810608	153.960000
502.904266	154.480000
502.997986	153.680000
503.091705	152.620000
503.185364	152.960000
503.279083	153.300000
503.372772	152.840000
503.466492	152.380000
503.560150	152.640000
503.653870	153.080000
503.747528	153.240000
503.841248	153.040000
503.934906	153.640000
504.028625	153.660000
504.122284	153.860000
504.216003	154.340000
504.309662	154.400000
504.403381	154.740000
504.497040	154.820000
504.590759	154.220000
504.684418	153.860000
504.778137	154.280000
504.871796	154.160000
504.965515	154.100000
505.059174	154.420000
505.152893	153.660000
505.246521	152.920000
505.340240	152.420000
505.433899	152.540000
505.527618	152.600000
505.621338	153.280000
505.714996	153.540000
505.808716	153.680000
505.902374	154.400000
505.996094	154.500000
506.089752	154.020000
506.183472	154.240000
506.277130	154.460000
506.370850	154.080000
506.464508	153.620000
506.558228	153.880000
506.651886	153.460000
506.745605	153.480000
506.839264	153.360000
506.932983	153.520000
507.026611	153.460000
507.120331	154.220000
507.213989	153.400000
507.307709	153.400000
507.401367	153.800000
507.495087	154.560000
507.588745	154.100000
507.682465	155.360000
507.776123	155.140000
507.869843	154.980000
507.963531	154.720000
508.057190	154.960000
508.150909	154.180000
508.244568	154.660000
508.338287	154.200000
508.431946	153.840000
508.525665	153.800000
508.619324	153.720000
508.713013	153.480000
508.806671	154.100000
508.900391	155.100000
508.994049	155.180000
509.087769	154.940000
509.181427	155.240000
509.275146	154.840000
509.368774	153.680000
509.462494	153.220000
509.556152	153.520000
509.649872	153.680000
509.743530	153.840000
509.837250	154.140000
509.930878	154.360000
510.024597	154.120000
510.118256	153.580000
510.211975	153.480000
510.305695	153.060000
510.399353	153.080000
510.493042	153.980000
510.586700	154.260000
510.680420	154.500000
510.774078	154.340000
510.867798	154.540000
510.961426	153.740000
511.055145	153.360000
511.148804	153.040000
511.242523	153.940000
511.336151	154.040000
511.429871	154.400000
511.523529	154.260000
511.617249	154.100000
511.710876	153.700000
511.804596	153.020000
511.898254	152.960000
511.991974	153.460000
512.085632	153.480000
512.179321	153.400000
512.272949	154.160000
512.366699	154.360000
512.460327	154.120000
512.554077	155.480000
512.647766	155.460000
512.741394	155.120000
512.835144	155.660000
512.928772	155.220000
513.022461	154.260000
513.116150	154.120000
513.209839	154.480000
513.303467	153.560000
513.397217	153.820000
513.490845	153.400000
513.584595	153.540000
513.678223	153.160000
513.771912	152.600000
513.865601	152.780000
513.959290	152.800000
514.052917	152.660000
514.146667	153.560000
514.240295	154.320000
514.333984	154.480000
514.427673	154.320000
514.521362	154.640000
514.614990	153.500000
514.708740	153.560000
514.802368	153.660000
514.896057	154.060000
514.989746	154.760000
515.083435	154.700000
515.177124	155.040000
515.270752	154.760000
515.364502	154.900000
515.458130	154.340000
515.551819	154.540000
515.645508	154.120000
515.739197	154.160000
515.832825	154.160000
515.926575	153.680000
516.020203	154.040000
516.113892	154.460000
516.207520	154.140000
516.301270	153.960000
516.394897	154.380000
516.488586	154.420000
516.582275	154.380000
516.675964	154.020000
516.769592	153.840000
516.863281	154.380000
516.956970	154.700000
517.050659	154.220000
517.144287	154.700000
517.238037	155.000000
517.331665	154.000000
517.425354	153.120000
517.519043	153.240000
517.612732	153.400000
517.706421	153.380000
517.800049	153.300000
517.893738	153.040000
517.987427	153.160000
518.081116	153.100000
518.174744	152.500000
518.268433	152.840000
518.362122	153.900000
518.455811	153.640000
518.549438	154.260000
518.643127	155.520000
518.736816	155.440000
518.830505	154.640000
518.924133	154.420000
519.017822	154.140000
519.111511	153.380000
519.205200	153.800000
519.298828	153.660000
519.392517	153.840000
519.486206	153.820000
519.579895	153.900000
519.673523	153.720000
519.767212	154.020000
519.860901	154.720000
519.954590	154.360000
520.048279	154.020000
520.141907	153.820000
520.235596	154.580000
520.329224	154.240000
520.422974	154.220000
520.516602	154.280000
520.610291	153.840000
520.703918	153.540000
520.797607	153.060000
520.891296	153.080000
520.984985	153.220000
521.078613	154.020000
521.172302	153.340000
521.265930	154.560000
521.359680	155.040000
521.453308	155.040000
521.546997	154.700000
521.640625	155.100000
521.734314	154.400000
521.827942	154.140000
521.921692	154.540000
522.015320	154.720000
522.109009	154.580000
522.202698	154.140000
522.296326	153.820000
522.390015	153.620000
522.483704	153.580000
522.577393	153.480000
522.671021	153.420000
522.764709	153.580000
522.858337	153.880000
522.952026	154.060000
523.045654	154.440000
523.139404	155.120000
523.233032	155.300000
523.326721	154.920000
523.420349	154.620000
523.514038	154.440000
523.607666	154.500000
523.701355	154.020000
523.795044	154.060000
523.888733	154.320000
523.982361	154.440000
524.076050	153.980000
524.169678	154.600000
524.263367	154.280000
524.356995	153.700000
524.450684	153.360000
524.544373	153.160000
524.638062	152.920000
524.731750	153.560000
524.825378	153.800000
524.919067	153.660000
525.012695	153.560000
525.106384	153.440000
525.200012	153.260000
525.293701	153.080000
525.387329	153.580000
525.481018	154.020000
525.574646	154.020000
525.668396	154.000000
525.762024	154.500000
525.855713	154.600000
525.949341	154.160000
526.043030	154.340000
526.136658	154.000000
526.230347	153.160000
526.323975	152.700000
526.417664	152.700000
526.511292	152.920000
526.604980	153.220000
526.698608	153.940000
526.792297	153.820000
526.885925	154.300000
526.979614	154.140000
527.073303	153.920000
527.166931	153.500000
527.260620	154.100000
527.354309	154.280000
527.447998	154.140000
527.541626	153.920000
527.635315	154.260000
527.728943	154.280000
527.822632	154.580000
527.916260	154.580000
528.009949	154.680000
528.103577	154.340000
528.197266	153.760000
528.290894	153.440000
528.384583	153.260000
528.478210	153.520000
528.571899	153.820000
528.665527	154.280000
528.759216	154.100000
528.852844	154.620000
528.946533	154.380000
529.040161	154.420000
529.133850	153.920000
529.227478	154.240000
529.321167	154.520000
529.414856	154.840000
529.508484	155.060000
529.602173	155.080000
529.695801	154.400000
529.789490	153.680000
529.883057	153.500000
529.976746	153.560000
530.070374	154.140000
530.164062	154.360000
530.257690	154.660000
530.351379	154.980000
530.445007	154.600000
530.538696	153.900000
530.632324	154.240000
530.726013	154.380000
530.819641	154.240000
530.913330	154.200000
531.006958	154.380000
531.100647	154.740000
531.194275	154.500000
531.287964	154.220000
531.381592	154.340000
531.475220	154.560000
531.568848	153.940000
531.662537	153.600000
531.756226	154.000000
531.849854	153.860000
531.943542	153.840000
532.037170	153.140000
532.130859	153.740000
532.224487	153.280000
532.318176	152.920000
532.411804	153.200000
532.505432	154.080000
532.599060	153.900000
532.692749	153.940000
532.786377	154.500000
532.880066	153.580000
532.973694	152.900000
533.067383	152.520000
533.161011	152.680000
533.254639	152.560000
533.348267	152.900000
533.441956	153.340000
533.535583	153.360000
533.629272	153.620000
533.722900	153.060000
533.816589	153.420000
533.910156	153.920000
534.003845	153.920000
534.097534	153.760000
534.191162	154.840000
534.284851	154.740000
534.378479	154.040000
534.472107	154.120000
534.565735	153.840000
534.659424	153.680000
534.753052	153.760000
534.846741	153.560000
534.940369	154.540000
535.033997	154.620000
535.127625	154.420000
535.221313	155.040000
535.314941	155.180000
535.408630	154.040000
535.502197	154.520000
535.595886	154.440000
535.689514	153.920000
535.783203	154.580000
535.876831	155.160000
535.970459	155.120000
536.064087	154.840000
536.157776	154.420000
536.251404	154.220000
536.345093	153.780000
536.438721	153.640000
536.532349	153.840000
536.626038	153.880000
536.719666	154.000000
536.813293	153.840000
536.906921	153.740000
537.000610	153.880000
537.094238	153.980000
537.187866	153.560000
537.281494	153.600000
537.375183	153.640000
537.468811	153.500000
537.562439	153.620000
537.656067	153.620000
537.749756	153.660000
537.843384	154.220000
537.937012	154.420000
538.030640	153.740000
538.124329	153.720000
538.217896	154.040000
538.311584	153.740000
538.405212	153.480000
538.498901	154.220000
538.592468	155.040000
538.686157	154.740000
538.779785	153.820000
538.873413	153.800000
538.967102	153.560000
539.060730	152.560000
539.154358	152.940000
539.247986	153.580000
539.341675	153.480000
539.435242	153.360000
539.528931	153.860000
539.622559	153.520000
539.716187	154.080000
539.809814	154.140000
539.903503	154.120000
539.997070	154.080000
540.090759	154.080000
540.184387	153.640000
540.278015	154.260000
540.371643	154.780000
540.465332	154.660000
540.558899	154.640000
540.652588	154.500000
540.746216	153.760000
540.839844	154.140000
540.933472	154.020000
541.027100	154.000000
541.120728	154.180000
541.214417	154.740000
541.308044	154.340000
541.401672	154.280000
541.495300	154.140000
541.588928	153.880000
541.682617	153.500000
541.776184	153.320000
541.869873	153.580000
541.963440	153.860000
542.057129	153.780000
542.150757	154.020000
542.244385	153.520000
542.338013	153.280000
542.431641	152.900000
542.525269	152.920000
542.618958	153.180000
542.712524	153.760000
542.806213	153.680000
542.899780	154.060000
542.993469	153.900000
543.087036	153.600000
543.180725	153.040000
543.274292	153.640000
543.367981	153.800000
543.461548	154.260000
543.555237	154.240000
543.648926	155.000000
543.742493	155.480000
543.836182	155.220000
543.929749	155.020000
544.023437	155.020000
544.117004	155.060000
544.210693	154.500000
544.304260	154.680000
544.397949	154.400000
544.491516	154.540000
544.585205	154.020000
544.678772	153.680000
544.772461	154.020000
544.866028	154.200000
544.959717	154.300000
545.053284	154.200000
545.146973	154.360000
545.240540	154.000000
545.334229	154.620000
545.427795	154.600000
545.521423	154.820000
545.615051	154.920000
545.708679	155.460000
545.802307	155.140000
545.895935	155.120000
545.989624	156.160000
546.083191	156.040000
546.176880	155.560000
546.270447	154.980000
546.364136	155.400000
546.457703	154.360000
546.551331	154.300000
546.644958	154.540000
546.738586	155.320000
546.832214	154.580000
546.925842	154.920000
547.019409	155.200000
547.113098	154.840000
547.206665	154.220000
547.300354	154.360000
547.393921	154.220000
547.487549	154.240000
547.581177	154.080000
547.674805	154.160000
547.768433	153.420000
547.862061	153.520000
547.955627	152.780000
548.049316	153.200000
548.142883	153.700000
548.236572	154.380000
548.330139	154.480000
548.423767	154.800000
548.517456	154.740000
548.611023	154.640000
548.704651	154.240000
548.798279	154.160000
548.891907	154.500000
548.985474	154.320000
549.079163	154.480000
549.172729	154.260000
549.266357	153.740000
549.359985	153.640000
549.453613	153.360000
549.547180	152.940000
549.640869	153.720000
549.734436	153.580000
549.828064	154.020000
549.921631	154.200000
550.015320	153.900000
550.108887	154.120000
550.202515	154.120000
550.296143	153.200000
550.389771	153.440000
550.483337	153.780000
550.576965	153.320000
550.670593	153.960000
550.764221	154.340000
550.857849	153.840000
550.951477	153.400000
551.045105	153.300000
551.138672	153.120000
551.232300	152.840000
551.325928	153.480000
551.419556	154.040000
551.513123	154.240000
551.606750	153.840000
551.700378	154.160000
551.794006	153.840000
551.887573	153.400000
551.981201	154.000000
552.074768	154.160000
552.168457	153.760000
552.262024	154.720000
552.355652	154.960000
552.449219	155.120000
552.542847	155.460000
552.636475	155.460000
552.730103	154.280000
552.823669	154.100000
552.917297	153.420000
553.010864	153.220000
553.104553	153.580000
553.198181	153.540000
553.291748	153.980000
553.385376	153.960000
553.478943	153.920000
553.572571	154.020000
553.666199	154.460000
553.759827	153.860000
553.853394	153.320000
553.947021	153.380000
554.040588	153.420000
554.134216	153.580000
554.227783	154.860000
554.321411	155.660000
554.415039	155.180000
554.508667	154.800000
554.602234	154.980000
554.695862	153.600000
554.789429	153.560000
554.883057	153.980000
554.976624	154.060000
555.070251	153.400000
555.163818	153.480000
555.257507	153.520000
555.351074	153.840000
555.444702	154.820000
555.538330	154.580000
555.631897	155.320000
555.725525	154.920000
555.819092	154.180000
555.912720	152.880000
556.006287	153.600000
556.099915	153.240000
556.193481	153.300000
556.287109	153.940000
556.380676	154.080000
556.474304	154.320000
556.567871	154.540000
556.661499	153.960000
556.755066	153.720000
556.848694	153.900000
556.942261	153.360000
557.035889	153.400000
557.129517	154.100000
557.223145	154.720000
557.316711	154.840000
557.410339	154.980000
557.503906	154.920000
557.597473	155.040000
557.691040	154.300000
557.784668	154.080000
557.878296	153.880000
557.971863	153.980000
558.065491	153.700000
558.159058	153.480000
558.252686	154.640000
558.346252	155.360000
558.439880	154.680000
558.533447	154.280000
558.627075	154.220000
558.720642	153.260000
558.814270	152.640000
558.907837	152.840000
559.001465	153.020000
559.095032	153.980000
559.188660	154.160000
559.282227	153.700000
559.375854	154.220000
559.469360	154.180000
559.562988	154.320000
559.656555	154.080000
559.750183	154.520000
559.843750	154.560000
559.937378	154.680000
560.030945	154.340000
560.124573	0.000000
560.218140	0.000000
560.311707	0.000000
560.405334	0.000000
560.498901	0.000000
560.592529	0.000000
560.686096	0.000000
560.779724	0.000000
560.873291	0.000000
560.966858	0.000000
561.060425	0.000000
561.154053	0.000000
561.247620	0.000000
561.341248	0.000000
561.434814	0.000000
561.528381	0.000000
561.621948	0.000000
561.715576	0.000000
561.809143	0.000000
561.902771	0.000000
561.996277	0.000000
562.089905	0.000000
562.183472	0.000000
562.277100	0.000000
