Model Number: SPM-002-B   
Serial Number: 70087108
Firmware Version: 004.15.4
Exposure Time: 100000.000000us
Data Taken on: 15-01-2021 16:41:14.912
Wavelength	Amplitude
221.570786	0.000000
221.663406	0.000000
221.756027	0.000000
221.848648	0.000000
221.941269	0.000000
222.033905	0.000000
222.126526	0.000000
222.219162	0.000000
222.311798	0.000000
222.404419	0.000000
222.497055	0.000000
222.589676	0.000000
222.682312	0.000000
222.774933	0.000000
222.867569	0.000000
222.960205	0.000000
223.052841	0.000000
223.145462	0.000000
223.238098	0.000000
223.330734	0.000000
223.423386	0.000000
223.516022	0.000000
223.608658	0.000000
223.701309	0.000000
223.793945	0.000000
223.886581	0.000000
223.979218	0.000000
224.071869	0.000000
224.164505	0.000000
224.257156	0.000000
224.349792	0.000000
224.442444	0.000000
224.535095	0.000000
224.627747	0.000000
224.720398	0.000000
224.813034	0.000000
224.905685	0.000000
224.998337	153.520000
225.090988	153.140000
225.183640	153.220000
225.276291	152.840000
225.368942	153.360000
225.461594	154.020000
225.554245	154.460000
225.646912	154.460000
225.739578	154.980000
225.832230	155.020000
225.924896	154.160000
226.017548	154.420000
226.110199	154.900000
226.202866	154.320000
226.295532	154.220000
226.388184	154.420000
226.480850	153.620000
226.573517	153.120000
226.666168	153.560000
226.758835	153.720000
226.851501	154.500000
226.944183	154.640000
227.036850	154.380000
227.129517	154.180000
227.222183	154.220000
227.314850	153.740000
227.407516	154.380000
227.500198	155.300000
227.592865	154.880000
227.685532	154.440000
227.778214	154.200000
227.870880	154.220000
227.963562	154.260000
228.056229	154.820000
228.148926	155.280000
228.241592	156.060000
228.334274	155.360000
228.426956	155.080000
228.519638	155.680000
228.612305	154.740000
228.704987	154.500000
228.797668	154.760000
228.890350	154.240000
228.983032	153.160000
229.075714	154.340000
229.168396	153.920000
229.261108	153.600000
229.353790	153.920000
229.446472	154.340000
229.539169	154.000000
229.631851	153.840000
229.724533	154.240000
229.817230	154.280000
229.909912	155.340000
230.002609	155.180000
230.095306	155.240000
230.187988	155.240000
230.280685	155.080000
230.373383	153.740000
230.466095	153.620000
230.558792	153.580000
230.651474	153.280000
230.744171	153.360000
230.836868	153.500000
230.929581	153.840000
231.022278	154.320000
231.114975	154.360000
231.207672	154.000000
231.300369	154.420000
231.393082	154.280000
231.485779	153.820000
231.578506	153.880000
231.671204	154.160000
231.763916	153.740000
231.856613	153.560000
231.949326	153.940000
232.042023	153.660000
232.134735	153.980000
232.227448	154.100000
232.320160	154.560000
232.412872	154.460000
232.505585	155.400000
232.598297	155.420000
232.691010	155.100000
232.783722	154.340000
232.876450	155.060000
232.969162	154.420000
233.061874	153.880000
233.154587	153.900000
233.247314	154.620000
233.340027	153.720000
233.432739	153.980000
233.525467	154.040000
233.618179	154.500000
233.710907	154.200000
233.803635	154.720000
233.896347	154.320000
233.989090	155.140000
234.081818	154.860000
234.174545	154.800000
234.267258	154.340000
234.359985	154.940000
234.452713	154.340000
234.545441	153.940000
234.638168	154.000000
234.730896	154.300000
234.823639	153.760000
234.916367	154.220000
235.009094	154.760000
235.101822	154.720000
235.194580	154.580000
235.287308	154.840000
235.380051	154.140000
235.472778	154.320000
235.565521	154.660000
235.658249	154.300000
235.750992	154.340000
235.843719	154.360000
235.936462	154.420000
236.029205	153.980000
236.121948	153.740000
236.214691	154.120000
236.307449	155.000000
236.400192	154.440000
236.492935	154.400000
236.585678	154.900000
236.678421	154.660000
236.771164	154.100000
236.863907	154.760000
236.956665	154.860000
237.049408	156.420000
237.142151	156.040000
237.234909	156.880000
237.327652	156.680000
237.420410	156.540000
237.513153	155.220000
237.605927	155.060000
237.698669	154.320000
237.791428	153.440000
237.884186	154.000000
237.976944	153.620000
238.069702	154.100000
238.162445	153.600000
238.255203	154.100000
238.347961	154.200000
238.440720	154.240000
238.533478	154.120000
238.626266	153.980000
238.719025	154.220000
238.811783	153.600000
238.904541	153.700000
238.997314	153.380000
239.090073	153.220000
239.182831	153.640000
239.275604	154.840000
239.368362	154.540000
239.461136	154.820000
239.553909	155.240000
239.646667	154.640000
239.739441	153.780000
239.832214	154.060000
239.925003	154.320000
240.017761	154.560000
240.110535	155.240000
240.203308	154.900000
240.296082	154.680000
240.388855	154.520000
240.481628	154.740000
240.574417	154.660000
240.667191	154.720000
240.759964	154.720000
240.852737	154.460000
240.945526	153.960000
241.038315	153.500000
241.131088	153.960000
241.223877	154.260000
241.316650	153.980000
241.409439	154.200000
241.502228	154.180000
241.595001	154.580000
241.687790	154.340000
241.780579	154.660000
241.873367	155.000000
241.966141	155.020000
242.058929	154.160000
242.151718	154.640000
242.244507	154.920000
242.337311	153.980000
242.430099	154.280000
242.522903	154.620000
242.615692	153.900000
242.708481	154.000000
242.801270	154.880000
242.894073	154.700000
242.986862	154.640000
243.079651	155.400000
243.172455	154.820000
243.265244	154.800000
243.358063	154.260000
243.450867	154.700000
243.543655	154.640000
243.636459	154.720000
243.729263	154.880000
243.822067	155.560000
243.914856	155.500000
244.007660	155.300000
244.100464	155.520000
244.193268	154.820000
244.286072	154.340000
244.378876	153.780000
244.471680	153.620000
244.564499	153.760000
244.657318	154.740000
244.750122	155.160000
244.842926	154.800000
244.935745	155.300000
245.028549	154.940000
245.121368	154.080000
245.214172	154.020000
245.306992	154.700000
245.399796	154.020000
245.492615	154.100000
245.585434	154.060000
245.678253	154.000000
245.771072	153.680000
245.863892	154.440000
245.956711	154.540000
246.049530	154.680000
246.142349	154.560000
246.235168	154.740000
246.327988	154.940000
246.420807	154.800000
246.513626	154.660000
246.606445	154.740000
246.699280	154.680000
246.792099	154.180000
246.884918	154.080000
246.977753	153.960000
247.070587	153.900000
247.163422	153.800000
247.256241	153.540000
247.349075	153.660000
247.441895	153.720000
247.534729	153.600000
247.627563	153.760000
247.720383	154.400000
247.813217	154.120000
247.906052	153.980000
247.998886	154.080000
248.091736	153.880000
248.184570	153.560000
248.277405	153.960000
248.370239	154.840000
248.463074	155.740000
248.555908	156.160000
248.648743	155.880000
248.741592	155.940000
248.834427	155.440000
248.927261	154.200000
249.020111	154.140000
249.112946	154.740000
249.205795	154.120000
249.298630	154.060000
249.391495	154.360000
249.484344	153.940000
249.577179	153.840000
249.670029	154.440000
249.762878	154.880000
249.855728	155.160000
249.948563	155.500000
250.041412	154.700000
250.134262	154.780000
250.227112	154.720000
250.319962	154.540000
250.412827	154.320000
250.505692	154.220000
250.598541	154.140000
250.691391	153.860000
250.784241	153.800000
250.877106	153.820000
250.969955	153.840000
251.062805	154.500000
251.155670	154.900000
251.248520	154.720000
251.341385	155.100000
251.434235	155.120000
251.527100	154.520000
251.619965	154.120000
251.712814	155.140000
251.805695	154.680000
251.898560	154.980000
251.991425	155.200000
252.084290	155.120000
252.177155	154.060000
252.270020	153.860000
252.362885	154.000000
252.455750	153.820000
252.548615	153.880000
252.641479	154.120000
252.734360	154.060000
252.827240	153.680000
252.920105	153.700000
253.012970	153.560000
253.105850	153.460000
253.198715	153.400000
253.291595	153.540000
253.384460	153.060000
253.477341	152.840000
253.570221	153.060000
253.663086	153.120000
253.755966	153.820000
253.848846	154.000000
253.941727	154.460000
254.034592	154.140000
254.127472	153.960000
254.220367	153.820000
254.313248	153.860000
254.406128	153.500000
254.499008	153.940000
254.591904	154.940000
254.684784	155.180000
254.777664	155.280000
254.870544	154.920000
254.963440	154.560000
255.056335	154.160000
255.149216	153.660000
255.242111	154.400000
255.334991	155.060000
255.427887	155.240000
255.520767	155.660000
255.613663	155.720000
255.706558	154.700000
255.799438	154.280000
255.892334	154.080000
255.985229	153.640000
256.078125	153.400000
256.171021	153.640000
256.263916	154.240000
256.356812	154.320000
256.449707	153.940000
256.542603	153.940000
256.635498	154.800000
256.728394	154.500000
256.821289	154.240000
256.914215	154.940000
257.007080	155.060000
257.100006	154.840000
257.192932	155.120000
257.285828	155.380000
257.378723	154.840000
257.471619	154.740000
257.564545	153.880000
257.657440	154.180000
257.750336	154.960000
257.843262	155.240000
257.936157	156.620000
258.029053	157.240000
258.121979	156.800000
258.214874	155.940000
258.307800	155.520000
258.400696	153.960000
258.493622	153.640000
258.586517	152.920000
258.679443	153.200000
258.772339	152.780000
258.865265	152.920000
258.958160	152.300000
259.051086	153.500000
259.144012	153.320000
259.236938	154.260000
259.329834	154.520000
259.422791	154.700000
259.515717	153.900000
259.608612	153.680000
259.701538	153.620000
259.794464	153.420000
259.887390	153.440000
259.980316	153.420000
260.073212	153.360000
260.166138	152.500000
260.259064	152.800000
260.351990	153.400000
260.444916	153.460000
260.537842	153.900000
260.630768	155.040000
260.723694	155.060000
260.816620	154.960000
260.909546	154.780000
261.002472	154.440000
261.095398	153.940000
261.188354	153.600000
261.281281	153.160000
261.374207	153.660000
261.467133	154.540000
261.560089	154.900000
261.653015	154.520000
261.745972	155.260000
261.838867	155.420000
261.931824	155.140000
262.024780	154.500000
262.117706	154.980000
262.210663	154.920000
262.303589	154.380000
262.396515	154.300000
262.489471	155.060000
262.582397	154.920000
262.675354	154.220000
262.768280	154.720000
262.861237	154.660000
262.954163	154.460000
263.047119	154.840000
263.140045	154.700000
263.233002	154.440000
263.325958	154.400000
263.418884	153.780000
263.511841	153.480000
263.604797	153.940000
263.697723	154.000000
263.790680	153.960000
263.883636	154.660000
263.976593	154.440000
264.069550	154.440000
264.162476	154.120000
264.255463	154.140000
264.348419	153.900000
264.441376	154.380000
264.534332	153.940000
264.627289	153.980000
264.720245	154.420000
264.813202	154.100000
264.906158	154.040000
264.999115	154.840000
265.092072	154.840000
265.185028	155.060000
265.277985	155.300000
265.370941	155.660000
265.463898	155.120000
265.556854	154.960000
265.649811	153.800000
265.742798	153.740000
265.835754	153.560000
265.928711	154.200000
266.021667	154.700000
266.114655	155.180000
266.207611	155.320000
266.300568	154.660000
266.393585	153.920000
266.486511	153.920000
266.579498	153.320000
266.672485	153.320000
266.765442	153.040000
266.858429	153.620000
266.951385	152.880000
267.044342	153.340000
267.137329	153.520000
267.230316	154.080000
267.323273	153.600000
267.416260	154.540000
267.509216	154.340000
267.602203	153.960000
267.695160	154.400000
267.788147	154.500000
267.881134	153.680000
267.974091	154.100000
268.067078	154.060000
268.160065	153.600000
268.253052	153.720000
268.346008	154.140000
268.438995	153.760000
268.531982	153.820000
268.624969	153.780000
268.717987	154.140000
268.810944	153.940000
268.903961	154.120000
268.996948	153.900000
269.089905	154.500000
269.182892	154.380000
269.275879	154.820000
269.368866	154.340000
269.461853	154.880000
269.554871	154.540000
269.647858	154.400000
269.740845	154.600000
269.833832	155.160000
269.926819	154.780000
270.019806	154.600000
270.112793	153.940000
270.205811	153.820000
270.298798	153.580000
270.391785	153.820000
270.484772	153.480000
270.577789	153.980000
270.670776	153.380000
270.763763	153.000000
270.856750	153.240000
270.949768	153.340000
271.042786	153.300000
271.135773	153.660000
271.228790	154.260000
271.321808	153.660000
271.414795	153.300000
271.507782	153.100000
271.600800	152.720000
271.693817	152.920000
271.786804	153.260000
271.879822	153.800000
271.972809	153.620000
272.065826	154.220000
272.158844	153.320000
272.251831	153.720000
272.344849	153.800000
272.437866	153.820000
272.530853	153.960000
272.623871	154.600000
272.716888	153.560000
272.809906	153.640000
272.902893	153.680000
272.995911	152.800000
273.088928	152.940000
273.181946	153.480000
273.274963	153.060000
273.367981	153.280000
273.460999	153.820000
273.554047	153.880000
273.647003	154.460000
273.740051	154.540000
273.833069	154.760000
273.926086	154.900000
274.019135	154.500000
274.112152	154.120000
274.205170	154.540000
274.298187	154.720000
274.391205	154.100000
274.484222	154.460000
274.577240	154.400000
274.670258	154.180000
274.763306	153.960000
274.856323	154.520000
274.949341	154.300000
275.042358	154.760000
275.135406	154.540000
275.228424	154.300000
275.321442	154.140000
275.414490	153.920000
275.507507	154.140000
275.600525	154.560000
275.693573	154.380000
275.786591	153.980000
275.879669	154.120000
275.972656	153.340000
276.065735	153.220000
276.158752	153.820000
276.251801	154.560000
276.344818	154.760000
276.437866	155.000000
276.530884	154.740000
276.623932	154.020000
276.716980	154.180000
276.809998	154.160000
276.903046	154.040000
276.996094	154.840000
277.089111	155.440000
277.182159	155.880000
277.275208	155.500000
277.368256	155.400000
277.461304	154.860000
277.554321	154.060000
277.647369	153.440000
277.740417	153.760000
277.833466	153.760000
277.926514	153.460000
278.019562	154.480000
278.112610	153.740000
278.205688	153.740000
278.298706	153.900000
278.391785	154.080000
278.484833	153.540000
278.577881	153.500000
278.670929	153.680000
278.763977	153.640000
278.857025	154.160000
278.950073	154.160000
279.043121	154.540000
279.136169	154.280000
279.229248	154.000000
279.322296	153.780000
279.415344	153.780000
279.508392	153.700000
279.601440	153.820000
279.694519	153.820000
279.787567	153.700000
279.880615	153.480000
279.973694	153.360000
280.066742	153.560000
280.159790	153.660000
280.252869	153.120000
280.345917	153.540000
280.438995	153.600000
280.532074	153.240000
280.625122	153.660000
280.718201	154.720000
280.811279	154.680000
280.904327	154.980000
280.997406	155.400000
281.090454	155.440000
281.183533	154.640000
281.276581	154.360000
281.369659	153.860000
281.462738	153.700000
281.555786	153.560000
281.648865	153.960000
281.741943	154.320000
281.835022	154.980000
281.928070	154.520000
282.021149	154.180000
282.114227	153.880000
282.207306	153.560000
282.300385	153.800000
282.393433	154.220000
282.486511	154.500000
282.579590	155.000000
282.672668	155.420000
282.765747	154.620000
282.858856	154.500000
282.951904	154.520000
283.045013	154.580000
283.138062	154.740000
283.231171	155.200000
283.324249	155.520000
283.417328	155.620000
283.510406	155.080000
283.603485	154.720000
283.696564	154.620000
283.789642	154.400000
283.882751	154.080000
283.975830	154.860000
284.068909	154.740000
284.161987	155.320000
284.255066	154.960000
284.348175	154.860000
284.441254	154.260000
284.534332	154.700000
284.627441	154.200000
284.720520	154.020000
284.813599	154.160000
284.906708	154.360000
284.999786	153.620000
285.092896	153.480000
285.185974	154.720000
285.279053	154.160000
285.372192	154.440000
285.465240	155.460000
285.558380	155.200000
285.651459	154.600000
285.744568	155.780000
285.837677	155.180000
285.930756	154.840000
286.023865	155.120000
286.116943	154.640000
286.210052	154.400000
286.303162	154.460000
286.396240	154.080000
286.489349	153.640000
286.582458	154.140000
286.675568	153.540000
286.768646	153.500000
286.861755	153.860000
286.954865	154.920000
287.047974	154.340000
287.141083	154.460000
287.234161	154.340000
287.327271	154.140000
287.420380	154.120000
287.513519	153.940000
287.606598	154.240000
287.699738	154.640000
287.792816	154.640000
287.885956	154.200000
287.979034	154.280000
288.072174	154.040000
288.165283	153.700000
288.258392	153.800000
288.351501	153.180000
288.444611	153.740000
288.537720	154.240000
288.630859	154.100000
288.723969	154.360000
288.817078	155.140000
288.910187	155.120000
289.003296	154.200000
289.096436	153.920000
289.189545	153.580000
289.282654	152.960000
289.375763	153.120000
289.468903	153.940000
289.562012	154.640000
289.655121	154.420000
289.748260	154.740000
289.841400	154.960000
289.934509	154.660000
290.027649	154.740000
290.120728	154.820000
290.213898	155.020000
290.306976	154.620000
290.400146	154.760000
290.493256	154.240000
290.586395	154.640000
290.679535	154.660000
290.772644	154.600000
290.865784	154.020000
290.958893	154.140000
291.052032	153.960000
291.145172	153.740000
291.238281	153.400000
291.331421	153.540000
291.424561	154.140000
291.517670	153.720000
291.610809	153.860000
291.703949	153.900000
291.797089	154.540000
291.890228	153.800000
291.983337	154.140000
292.076477	154.140000
292.169617	154.480000
292.262756	154.140000
292.355927	154.060000
292.449036	153.720000
292.542206	153.860000
292.635315	154.120000
292.728485	154.440000
292.821625	154.360000
292.914764	155.780000
293.007904	155.440000
293.101044	155.200000
293.194183	154.800000
293.287323	154.960000
293.380463	154.020000
293.473602	153.940000
293.566742	154.000000
293.659882	154.280000
293.753021	154.700000
293.846191	154.560000
293.939331	154.200000
294.032471	154.000000
294.125610	153.740000
294.218781	153.840000
294.311920	154.240000
294.405060	154.640000
294.498230	154.680000
294.591370	154.740000
294.684540	154.020000
294.777679	153.300000
294.870850	153.700000
294.963959	153.740000
295.057159	153.640000
295.150299	154.040000
295.243469	153.860000
295.336609	153.240000
295.429779	153.300000
295.522919	153.480000
295.616089	153.720000
295.709229	154.740000
295.802399	155.180000
295.895569	154.680000
295.988708	154.620000
296.081879	154.480000
296.175018	153.800000
296.268188	153.600000
296.361359	154.340000
296.454529	154.500000
296.547668	154.240000
296.640839	154.380000
296.734009	154.280000
296.827179	154.440000
296.920319	154.640000
297.013519	154.760000
297.106659	155.000000
297.199860	155.060000
297.292999	154.880000
297.386200	154.460000
297.479309	154.020000
297.572510	153.760000
297.665680	153.720000
297.758850	153.680000
297.852020	153.580000
297.945190	153.560000
298.038361	153.560000
298.131531	154.640000
298.224701	154.060000
298.317871	153.800000
298.411072	153.560000
298.504242	153.560000
298.597412	152.580000
298.690582	152.980000
298.783752	153.440000
298.876923	154.120000
298.970093	154.300000
299.063293	154.700000
299.156464	155.300000
299.249634	155.460000
299.342834	155.640000
299.436005	155.880000
299.529205	155.680000
299.622345	155.380000
299.715576	154.700000
299.808716	154.400000
299.901917	154.000000
299.995117	154.160000
300.088287	154.100000
300.181488	154.180000
300.274658	153.940000
300.367828	153.920000
300.461029	153.960000
300.554199	154.000000
300.647400	154.320000
300.740601	155.160000
300.833771	155.040000
300.926971	155.200000
301.020142	154.800000
301.113342	154.600000
301.206512	154.600000
301.299713	155.140000
301.392914	154.860000
301.486084	155.340000
301.579285	155.640000
301.672516	155.840000
301.765686	155.360000
301.858887	155.240000
301.952057	154.920000
302.045288	154.620000
302.138458	153.960000
302.231659	154.060000
302.324860	154.120000
302.418060	153.740000
302.511261	153.540000
302.604462	153.900000
302.697662	153.520000
302.790863	153.060000
302.884064	153.160000
302.977264	153.480000
303.070465	153.420000
303.163666	154.380000
303.256866	154.860000
303.350067	154.880000
303.443268	154.900000
303.536469	155.040000
303.629669	154.180000
303.722870	153.940000
303.816071	153.880000
303.909271	153.700000
304.002472	152.800000
304.095673	152.820000
304.188934	152.360000
304.282104	153.320000
304.375336	153.680000
304.468506	153.860000
304.561768	153.760000
304.654968	154.580000
304.748169	154.060000
304.841370	153.780000
304.934601	154.300000
305.027802	154.080000
305.121002	153.400000
305.214233	153.560000
305.307434	153.380000
305.400665	154.000000
305.493866	154.100000
305.587097	154.740000
305.680298	153.980000
305.773499	154.920000
305.866730	154.280000
305.959930	154.800000
306.053162	154.860000
306.146393	155.020000
306.239594	153.940000
306.332825	154.080000
306.426025	154.460000
306.519287	153.780000
306.612488	154.020000
306.705719	154.100000
306.798920	153.960000
306.892181	153.160000
306.985352	153.080000
307.078613	152.720000
307.171844	153.320000
307.265045	152.740000
307.358276	152.580000
307.451508	152.980000
307.544739	153.500000
307.637970	152.700000
307.731201	153.000000
307.824402	153.920000
307.917633	154.220000
308.010864	154.720000
308.104095	155.500000
308.197327	155.640000
308.290558	155.260000
308.383789	154.800000
308.477020	154.160000
308.570251	153.240000
308.663483	152.940000
308.756714	152.680000
308.849976	152.760000
308.943176	153.280000
309.036438	153.220000
309.129639	153.320000
309.222900	153.600000
309.316101	153.440000
309.409393	152.460000
309.502625	152.500000
309.595856	152.520000
309.689087	152.360000
309.782318	152.640000
309.875580	152.980000
309.968811	153.500000
310.062042	153.320000
310.155273	153.620000
310.248535	153.880000
310.341766	153.840000
310.434998	153.560000
310.528259	153.720000
310.621490	153.880000
310.714722	153.180000
310.807983	153.180000
310.901215	153.240000
310.994476	153.080000
311.087708	152.400000
311.181000	152.980000
311.274200	152.580000
311.367462	152.700000
311.460693	152.760000
311.553986	153.640000
311.647186	153.740000
311.740479	154.580000
311.833710	154.440000
311.926971	154.400000
312.020203	153.620000
312.113464	153.360000
312.206726	152.920000
312.299957	153.080000
312.393219	153.860000
312.486481	154.140000
312.579712	154.260000
312.672974	154.280000
312.766235	154.100000
312.859497	153.360000
312.952759	153.260000
313.045990	154.020000
313.139252	153.200000
313.232513	153.620000
313.325775	153.940000
313.419037	153.640000
313.512299	152.280000
313.605530	153.540000
313.698822	153.340000
313.792053	152.900000
313.885345	152.940000
313.978577	153.560000
314.071869	152.860000
314.165131	153.440000
314.258392	153.940000
314.351654	154.100000
314.444916	153.540000
314.538177	154.260000
314.631439	154.160000
314.724701	154.140000
314.817993	153.920000
314.911255	154.260000
315.004517	153.760000
315.097778	153.500000
315.191040	153.680000
315.284302	154.040000
315.377594	154.020000
315.470856	153.960000
315.564117	153.360000
315.657379	152.520000
315.750671	151.980000
315.843933	152.160000
315.937195	151.780000
316.030518	151.900000
316.123749	152.680000
316.217041	153.900000
316.310303	154.060000
316.403595	154.680000
316.496857	154.760000
316.590149	154.680000
316.683411	153.680000
316.776703	152.720000
316.869965	152.720000
316.963257	152.900000
317.056519	151.960000
317.149811	152.080000
317.243073	152.700000
317.336365	152.560000
317.429626	152.920000
317.522919	153.980000
317.616180	153.960000
317.709473	153.780000
317.802765	153.600000
317.896027	152.980000
317.989319	153.260000
318.082611	153.100000
318.175873	152.760000
318.269165	153.020000
318.362488	153.480000
318.455750	152.600000
318.549042	153.100000
318.642303	154.260000
318.735626	153.760000
318.828888	153.680000
318.922211	153.620000
319.015472	154.020000
319.108765	152.760000
319.202057	152.920000
319.295349	153.340000
319.388641	153.440000
319.481934	153.060000
319.575226	153.440000
319.668518	153.720000
319.761810	153.720000
319.855103	153.900000
319.948395	153.640000
320.041687	153.760000
320.134979	153.680000
320.228271	153.260000
320.321564	153.020000
320.414856	153.000000
320.508148	152.760000
320.601440	152.460000
320.694763	152.220000
320.788025	153.120000
320.881348	153.380000
320.974640	153.460000
321.067963	153.420000
321.161224	153.360000
321.254547	152.360000
321.347839	152.980000
321.441162	152.880000
321.534454	153.180000
321.627747	152.960000
321.721069	154.300000
321.814362	153.840000
321.907654	154.400000
322.000946	154.660000
322.094269	155.600000
322.187561	154.900000
322.280884	155.280000
322.374176	155.100000
322.467468	155.040000
322.560791	155.100000
322.654083	155.580000
322.747406	155.540000
322.840698	155.680000
322.934021	156.000000
323.027344	156.180000
323.120636	155.320000
323.213959	154.940000
323.307251	154.280000
323.400574	153.940000
323.493866	152.840000
323.587219	153.060000
323.680511	153.420000
323.773834	153.800000
323.867157	153.760000
323.960449	154.180000
324.053772	153.920000
324.147095	153.720000
324.240387	154.360000
324.333710	154.100000
324.427032	154.200000
324.520355	154.340000
324.613647	153.800000
324.706970	153.200000
324.800293	153.380000
324.893616	153.660000
324.986938	154.100000
325.080231	154.180000
325.173553	154.340000
325.266876	154.800000
325.360199	154.800000
325.453522	154.260000
325.546875	154.060000
325.640167	154.120000
325.733521	154.120000
325.826813	154.400000
325.920166	154.440000
326.013489	154.440000
326.106812	153.680000
326.200134	153.100000
326.293457	152.220000
326.386780	152.320000
326.480103	152.480000
326.573425	152.940000
326.666748	153.040000
326.760071	153.560000
326.853424	153.600000
326.946747	153.720000
327.040070	154.640000
327.133392	154.520000
327.226715	153.940000
327.320068	153.400000
327.413391	153.780000
327.506714	152.620000
327.600037	152.900000
327.693390	153.100000
327.786713	153.520000
327.880066	153.180000
327.973358	153.720000
328.066742	154.020000
328.160034	154.420000
328.253418	154.560000
328.346710	154.380000
328.440063	154.160000
328.533417	153.780000
328.626740	154.060000
328.720093	153.560000
328.813416	153.880000
328.906769	153.980000
329.000092	154.020000
329.093445	153.540000
329.186768	154.080000
329.280121	154.400000
329.373444	154.640000
329.466797	154.680000
329.560120	154.960000
329.653473	154.700000
329.746796	153.740000
329.840149	153.460000
329.933502	153.180000
330.026825	152.780000
330.120178	152.740000
330.213562	152.760000
330.306854	152.600000
330.400238	153.060000
330.493561	152.780000
330.586945	153.420000
330.680237	154.100000
330.773621	154.220000
330.866974	153.940000
330.960327	154.480000
331.053680	154.120000
331.147003	154.140000
331.240356	154.720000
331.333710	154.920000
331.427063	154.520000
331.520416	154.260000
331.613770	153.940000
331.707123	153.700000
331.800476	153.820000
331.893829	154.840000
331.987152	155.240000
332.080505	155.060000
332.173859	154.760000
332.267212	153.920000
332.360565	153.100000
332.453918	152.540000
332.547333	152.400000
332.640656	152.640000
332.734039	153.060000
332.827362	152.680000
332.920746	153.100000
333.014069	153.840000
333.107452	154.080000
333.200806	154.300000
333.294159	154.780000
333.387543	154.460000
333.480896	153.920000
333.574249	153.440000
333.667603	153.300000
333.760956	153.380000
333.854340	153.100000
333.947693	153.220000
334.041046	153.340000
334.134430	153.440000
334.227783	153.200000
334.321136	153.500000
334.414520	153.140000
334.507874	153.160000
334.601227	153.380000
334.694611	153.300000
334.787964	153.200000
334.881348	153.940000
334.974701	153.980000
335.068085	153.460000
335.161438	153.960000
335.254822	154.000000
335.348175	153.900000
335.441559	153.360000
335.534943	154.000000
335.628296	153.420000
335.721680	153.700000
335.815033	153.860000
335.908417	154.400000
336.001770	154.260000
336.095154	154.300000
336.188538	154.120000
336.281891	153.280000
336.375275	152.540000
336.468658	152.520000
336.562012	152.840000
336.655396	153.000000
336.748779	153.700000
336.842133	153.960000
336.935516	154.240000
337.028900	153.820000
337.122284	153.820000
337.215637	153.600000
337.309021	153.900000
337.402435	153.260000
337.495789	153.220000
337.589203	153.240000
337.682526	153.160000
337.775940	153.260000
337.869324	153.360000
337.962708	153.200000
338.056091	153.300000
338.149475	153.000000
338.242859	153.240000
338.336243	153.320000
338.429626	153.700000
338.523010	153.580000
338.616394	153.880000
338.709778	153.540000
338.803162	153.800000
338.896545	153.880000
338.989929	153.480000
339.083313	153.600000
339.176697	153.440000
339.270081	152.880000
339.363464	153.340000
339.456848	153.860000
339.550232	153.280000
339.643616	153.260000
339.737030	153.600000
339.830383	153.060000
339.923828	153.180000
340.017181	153.440000
340.110596	153.660000
340.203949	153.280000
340.297363	152.780000
340.390778	152.400000
340.484161	152.620000
340.577545	152.700000
340.670959	153.200000
340.764343	153.400000
340.857727	153.760000
340.951111	153.340000
341.044525	153.460000
341.137909	152.820000
341.231293	152.920000
341.324707	152.480000
341.418091	153.020000
341.511505	152.980000
341.604889	153.420000
341.698303	153.480000
341.791687	153.780000
341.885071	153.540000
341.978485	152.920000
342.071899	153.200000
342.165283	153.600000
342.258698	153.840000
342.352081	154.240000
342.445496	155.000000
342.538879	154.700000
342.632324	154.340000
342.725708	153.980000
342.819122	153.520000
342.912506	153.120000
343.005920	153.280000
343.099335	154.400000
343.192719	154.300000
343.286133	154.500000
343.379547	154.840000
343.472931	154.800000
343.566345	153.860000
343.659760	153.940000
343.753143	153.640000
343.846558	153.180000
343.939972	153.260000
344.033386	153.740000
344.126770	153.680000
344.220184	154.040000
344.313599	154.860000
344.407043	154.760000
344.500427	154.100000
344.593872	154.760000
344.687225	153.980000
344.780670	153.160000
344.874054	153.040000
344.967499	153.600000
345.060913	153.140000
345.154327	153.680000
345.247742	153.520000
345.341156	153.440000
345.434570	153.060000
345.527985	152.960000
345.621399	152.960000
345.714813	153.120000
345.808228	153.560000
345.901642	153.140000
345.995056	152.940000
346.088470	153.120000
346.181885	153.620000
346.275299	153.060000
346.368713	153.300000
346.462128	153.200000
346.555573	153.300000
346.648987	153.400000
346.742401	153.300000
346.835815	153.960000
346.929260	153.920000
347.022644	153.520000
347.116119	153.240000
347.209503	153.780000
347.302948	154.260000
347.396362	154.920000
347.489807	155.620000
347.583221	156.180000
347.676636	155.680000
347.770050	154.540000
347.863495	154.160000
347.956909	153.760000
348.050323	153.060000
348.143768	153.100000
348.237183	152.880000
348.330597	153.000000
348.424042	153.240000
348.517456	153.660000
348.610901	154.040000
348.704315	154.020000
348.797760	153.840000
348.891174	153.220000
348.984619	152.580000
349.078033	152.920000
349.171448	154.060000
349.264923	153.980000
349.358337	154.120000
349.451782	154.400000
349.545197	153.440000
349.638641	152.540000
349.732086	152.240000
349.825500	152.940000
349.918945	152.360000
350.012390	153.220000
350.105804	153.720000
350.199249	154.320000
350.292664	154.160000
350.386108	154.660000
350.479553	154.960000
350.572968	154.820000
350.666412	154.680000
350.759857	154.240000
350.853302	154.800000
350.946716	154.200000
351.040161	154.440000
351.133606	154.300000
351.227081	154.220000
351.320465	154.680000
351.413940	154.840000
351.507355	154.520000
351.600830	154.780000
351.694244	154.660000
351.787720	154.180000
351.881104	154.040000
351.974579	154.140000
352.067993	154.920000
352.161469	155.400000
352.254883	154.860000
352.348358	154.700000
352.441803	154.280000
352.535248	153.720000
352.628693	153.840000
352.722137	153.840000
352.815582	154.100000
352.909027	154.460000
353.002472	154.420000
353.095917	154.620000
353.189362	154.820000
353.282806	154.660000
353.376251	154.400000
353.469696	153.800000
353.563141	153.860000
353.656586	153.780000
353.750061	153.300000
353.843475	153.300000
353.936981	154.140000
354.030396	153.400000
354.123871	153.600000
354.217285	154.640000
354.310760	154.920000
354.404175	154.460000
354.497681	154.420000
354.591095	154.140000
354.684570	153.220000
354.777985	153.060000
354.871490	152.860000
354.964935	153.400000
355.058380	153.920000
355.151855	153.760000
355.245300	154.100000
355.338745	154.760000
355.432220	154.720000
355.525665	153.940000
355.619110	154.760000
355.712585	154.500000
355.806030	154.060000
355.899475	153.540000
355.992950	154.140000
356.086426	154.320000
356.179871	154.260000
356.273346	154.280000
356.366791	154.880000
356.460266	155.180000
356.553711	154.460000
356.647186	154.800000
356.740631	154.680000
356.834106	154.200000
356.927551	153.960000
357.021027	154.080000
357.114471	153.800000
357.207947	153.800000
357.301422	154.180000
357.394867	154.060000
357.488342	154.360000
357.581818	154.500000
357.675262	154.700000
357.768738	154.360000
357.862213	153.780000
357.955658	153.980000
358.049133	153.820000
358.142609	154.020000
358.236053	153.820000
358.329529	154.220000
358.423035	154.180000
358.516449	153.600000
358.609955	153.860000
358.703400	154.520000
358.796906	154.280000
358.890350	153.600000
358.983826	154.280000
359.077271	153.540000
359.170776	153.220000
359.264221	153.400000
359.357727	154.000000
359.451172	154.240000
359.544647	154.380000
359.638123	154.100000
359.731598	154.500000
359.825073	154.560000
359.918549	154.620000
360.012024	154.980000
360.105499	154.680000
360.198975	154.440000
360.292450	154.400000
360.385925	154.440000
360.479401	153.760000
360.572876	154.540000
360.666351	154.820000
360.759857	154.340000
360.853302	154.120000
360.946808	154.140000
361.040253	153.940000
361.133759	153.420000
361.227203	154.260000
361.320709	153.500000
361.414154	153.620000
361.507660	154.200000
361.601105	154.740000
361.694641	154.960000
361.788086	155.240000
361.881592	155.880000
361.975067	154.980000
362.068542	155.100000
362.162018	154.580000
362.255524	154.580000
362.348999	154.480000
362.442474	154.880000
362.535950	154.420000
362.629456	154.400000
362.722931	154.220000
362.816406	154.260000
362.909882	154.500000
363.003387	154.160000
363.096863	154.500000
363.190338	154.620000
363.283875	154.320000
363.377319	154.120000
363.470825	154.880000
363.564301	153.760000
363.657806	154.020000
363.751282	153.760000
363.844788	154.480000
363.938232	153.640000
364.031769	154.740000
364.125214	154.980000
364.218750	155.560000
364.312225	154.160000
364.405731	154.400000
364.499207	153.580000
364.592712	153.360000
364.686188	152.840000
364.779694	153.300000
364.873169	153.600000
364.966675	153.660000
365.060150	153.180000
365.153656	153.960000
365.247131	154.100000
365.340637	154.040000
365.434143	154.620000
365.527618	155.160000
365.621155	153.860000
365.714600	153.900000
365.808136	153.960000
365.901611	152.860000
365.995117	152.500000
366.088593	152.900000
366.182129	152.360000
366.275604	152.360000
366.369110	152.640000
366.462585	152.720000
366.556122	153.680000
366.649567	154.060000
366.743103	154.000000
366.836609	154.120000
366.930115	154.420000
367.023590	153.840000
367.117096	153.540000
367.210602	153.440000
367.304108	154.420000
367.397614	154.940000
367.491119	154.740000
367.584595	155.440000
367.678101	155.940000
367.771606	154.840000
367.865112	154.400000
367.958649	154.220000
368.052124	153.780000
368.145660	153.360000
368.239136	154.140000
368.332672	153.940000
368.426147	154.320000
368.519684	154.320000
368.613159	154.480000
368.706696	154.080000
368.800171	154.180000
368.893707	153.880000
368.987183	153.680000
369.080719	153.600000
369.174225	153.700000
369.267731	153.980000
369.361237	154.160000
369.454742	154.260000
369.548248	154.760000
369.641754	154.340000
369.735260	153.780000
369.828766	153.080000
369.922272	153.760000
370.015808	153.140000
370.109314	152.720000
370.202820	152.740000
370.296356	154.000000
370.389832	153.440000
370.483368	153.340000
370.576874	153.860000
370.670410	154.220000
370.763885	153.060000
370.857422	153.120000
370.950928	153.300000
371.044464	154.200000
371.137939	154.360000
371.231476	154.800000
371.324982	155.460000
371.418518	155.380000
371.512024	155.020000
371.605560	154.580000
371.699066	155.080000
371.792572	154.380000
371.886108	155.080000
371.979614	154.600000
372.073120	155.080000
372.166656	154.820000
372.260162	154.980000
372.353668	154.300000
372.447205	154.320000
372.540710	154.100000
372.634277	153.780000
372.727753	153.980000
372.821320	153.760000
372.914795	153.700000
373.008362	153.360000
373.101837	153.740000
373.195404	153.220000
373.288879	153.320000
373.382446	154.160000
373.475922	154.620000
373.569489	155.140000
373.662964	155.720000
373.756531	155.700000
373.850037	155.620000
373.943573	155.200000
374.037109	153.920000
374.130615	154.040000
374.224152	154.180000
374.317657	153.560000
374.411194	154.400000
374.504730	154.860000
374.598236	154.520000
374.691772	154.260000
374.785309	154.620000
374.878815	153.280000
374.972351	153.600000
375.065887	153.320000
375.159454	154.080000
375.252930	153.560000
375.346497	154.100000
375.440002	154.480000
375.533569	154.400000
375.627045	153.900000
375.720612	154.140000
375.814117	154.560000
375.907684	154.040000
376.001160	153.880000
376.094727	153.460000
376.188232	154.200000
376.281799	154.200000
376.375336	154.260000
376.468872	155.200000
376.562408	155.780000
376.655914	154.880000
376.749451	154.720000
376.842987	154.900000
376.936523	154.240000
377.030060	154.000000
377.123596	154.500000
377.217133	153.900000
377.310669	153.760000
377.404205	154.360000
377.497772	155.020000
377.591278	154.720000
377.684845	155.780000
377.778351	155.980000
377.871918	155.480000
377.965424	154.440000
378.058990	154.380000
378.152496	153.820000
378.246063	153.920000
378.339569	154.160000
378.433136	154.320000
378.526642	154.460000
378.620209	154.580000
378.713745	154.160000
378.807312	154.620000
378.900848	154.800000
378.994385	154.780000
379.087921	154.080000
379.181458	154.320000
379.274994	153.340000
379.368530	153.100000
379.462097	153.640000
379.555634	154.160000
379.649170	153.640000
379.742706	153.680000
379.836273	154.060000
379.929810	153.480000
380.023376	153.280000
380.116882	153.500000
380.210449	153.640000
380.303986	153.400000
380.397552	152.900000
380.491058	153.220000
380.584656	152.760000
380.678162	153.300000
380.771729	153.540000
380.865265	154.580000
380.958832	154.640000
381.052368	155.260000
381.145935	155.300000
381.239471	155.540000
381.333008	155.140000
381.426575	154.740000
381.520111	154.820000
381.613647	154.840000
381.707214	154.180000
381.800751	153.540000
381.894318	154.100000
381.987854	153.480000
382.081421	153.180000
382.174988	153.580000
382.268524	153.720000
382.362091	153.380000
382.455627	154.920000
382.549194	154.480000
382.642731	153.900000
382.736298	153.620000
382.829834	153.320000
382.923401	153.160000
383.016937	153.720000
383.110504	154.280000
383.204041	154.760000
383.297607	155.280000
383.391174	153.880000
383.484741	154.100000
383.578278	153.520000
383.671844	153.460000
383.765411	152.800000
383.858948	153.820000
383.952515	153.480000
384.046051	154.040000
384.139618	154.400000
384.233185	154.820000
384.326721	154.620000
384.420288	154.840000
384.513855	154.680000
384.607422	154.600000
384.700989	154.900000
384.794525	154.260000
384.888123	154.220000
384.981659	154.620000
385.075226	154.320000
385.168762	153.900000
385.262360	153.840000
385.355896	153.340000
385.449463	153.120000
385.542999	153.100000
385.636597	154.140000
385.730164	154.480000
385.823730	154.260000
385.917267	153.740000
386.010834	154.000000
386.104401	153.420000
386.197968	153.860000
386.291534	154.400000
386.385101	154.900000
386.478668	155.280000
386.572235	155.060000
386.665802	154.320000
386.759338	153.800000
386.852905	153.440000
386.946472	152.880000
387.040070	153.300000
387.133606	153.600000
387.227203	153.580000
387.320740	154.040000
387.414337	153.880000
387.507874	153.280000
387.601471	153.340000
387.695007	153.240000
387.788605	152.520000
387.882141	153.120000
387.975739	153.580000
388.069275	153.720000
388.162872	154.400000
388.256439	154.540000
388.350037	153.860000
388.443604	153.600000
388.537170	153.440000
388.630737	153.780000
388.724304	154.260000
388.817871	154.260000
388.911438	154.280000
389.005005	154.420000
389.098602	154.500000
389.192169	154.060000
389.285736	154.920000
389.379333	154.940000
389.472870	154.400000
389.566467	154.320000
389.660034	154.480000
389.753632	153.240000
389.847168	153.520000
389.940765	153.700000
390.034332	153.380000
390.127930	153.060000
390.221466	153.140000
390.315063	152.680000
390.408630	152.220000
390.502228	151.380000
390.595795	151.840000
390.689362	152.280000
390.782959	152.360000
390.876526	153.280000
390.970093	153.540000
391.063690	154.100000
391.157257	154.340000
391.250824	154.980000
391.344421	154.460000
391.437988	154.980000
391.531555	154.700000
391.625153	154.600000
391.718750	154.480000
391.812317	154.640000
391.905914	154.340000
391.999481	154.620000
392.093079	154.680000
392.186615	154.760000
392.280243	154.640000
392.373779	154.800000
392.467407	154.720000
392.560944	154.700000
392.654572	154.100000
392.748108	153.960000
392.841736	154.160000
392.935303	153.560000
393.028900	153.240000
393.122467	153.220000
393.216064	152.820000
393.309631	152.120000
393.403229	151.980000
393.496796	152.060000
393.590393	151.560000
393.683990	151.980000
393.777557	152.520000
393.871155	152.600000
393.964722	153.200000
394.058350	153.480000
394.151917	153.720000
394.245514	153.340000
394.339081	154.020000
394.432678	153.860000
394.526245	154.140000
394.619873	153.620000
394.713409	153.740000
394.807037	153.180000
394.900604	153.180000
394.994202	152.980000
395.087769	153.360000
395.181396	153.260000
395.274994	154.200000
395.368561	153.700000
395.462158	153.760000
395.555756	153.180000
395.649353	153.760000
395.742920	152.960000
395.836517	153.240000
395.930115	152.740000
396.023712	153.360000
396.117279	153.380000
396.210876	152.820000
396.304474	152.980000
396.398071	153.500000
396.491669	153.600000
396.585266	153.180000
396.678833	153.380000
396.772461	153.420000
396.866028	153.200000
396.959656	153.380000
397.053223	153.680000
397.146851	153.700000
397.240417	153.520000
397.334015	154.260000
397.427582	154.120000
397.521210	154.000000
397.614807	154.660000
397.708405	154.860000
397.802002	154.440000
397.895599	154.980000
397.989197	154.800000
398.082794	154.420000
398.176392	154.400000
398.269989	154.540000
398.363586	154.260000
398.457184	155.360000
398.550781	155.860000
398.644379	155.860000
398.737976	156.120000
398.831573	156.920000
398.925201	157.260000
399.018768	159.260000
399.112396	163.260000
399.205963	169.920000
399.299591	179.640000
399.393158	194.080000
399.486786	216.440000
399.580353	253.720000
399.673981	323.900000
399.767578	450.860000
399.861206	652.960000
399.954773	923.720000
400.048401	1212.560000
400.141998	1449.200000
400.235596	1569.060000
400.329193	1539.560000
400.422791	1364.800000
400.516418	1107.440000
400.610016	835.260000
400.703613	601.480000
400.797211	425.900000
400.890808	312.900000
400.984436	245.440000
401.078033	207.520000
401.171631	186.220000
401.265259	175.180000
401.358826	169.340000
401.452484	165.320000
401.546051	162.420000
401.639679	160.960000
401.733246	160.020000
401.826904	158.820000
401.920471	157.220000
402.014099	156.860000
402.107697	156.200000
402.201324	155.800000
402.294891	155.460000
402.388550	156.120000
402.482147	156.080000
402.575745	155.720000
402.669373	154.920000
402.762970	154.760000
402.856567	154.480000
402.950195	154.640000
403.043793	154.680000
403.137390	155.680000
403.231018	154.900000
403.324615	155.560000
403.418243	154.800000
403.511841	155.180000
403.605469	154.660000
403.699066	155.460000
403.792694	154.920000
403.886292	155.340000
403.979919	155.080000
404.073517	154.980000
404.167145	155.040000
404.260712	155.020000
404.354370	154.620000
404.447937	154.820000
404.541595	154.900000
404.635162	155.400000
404.728821	155.620000
404.822418	155.160000
404.916046	154.700000
405.009644	154.800000
405.103271	154.320000
405.196899	153.860000
405.290497	154.540000
405.384125	154.980000
405.477722	154.360000
405.571350	153.960000
405.664948	154.000000
405.758575	153.600000
405.852203	153.040000
405.945801	153.340000
406.039429	153.540000
406.133057	153.480000
406.226654	153.260000
406.320312	153.520000
406.413879	153.680000
406.507538	153.880000
406.601135	153.600000
406.694763	154.420000
406.788361	154.080000
406.882019	153.900000
406.975586	154.080000
407.069244	154.740000
407.162872	154.560000
407.256470	154.660000
407.350098	154.580000
407.443726	154.020000
407.537323	153.500000
407.630951	153.580000
407.724579	153.440000
407.818207	154.100000
407.911804	154.120000
408.005432	154.480000
408.099060	154.720000
408.192688	155.220000
408.286285	154.680000
408.379913	154.380000
408.473572	153.980000
408.567169	153.240000
408.660828	152.900000
408.754395	152.740000
408.848053	152.980000
408.941650	153.260000
409.035309	153.180000
409.128906	153.260000
409.222565	153.300000
409.316132	153.460000
409.409790	153.200000
409.503387	153.320000
409.597046	153.380000
409.690674	153.720000
409.784302	153.700000
409.877930	153.640000
409.971558	153.520000
410.065186	153.500000
410.158783	153.320000
410.252411	153.080000
410.346039	153.620000
410.439667	153.860000
410.533295	154.000000
410.626923	154.260000
410.720551	154.100000
410.814209	154.440000
410.907806	154.480000
411.001465	154.120000
411.095062	154.200000
411.188721	154.660000
411.282318	153.880000
411.375977	153.540000
411.469574	153.820000
411.563232	153.480000
411.656830	153.260000
411.750488	153.180000
411.844086	153.180000
411.937744	153.120000
412.031372	152.980000
412.125000	152.900000
412.218628	153.180000
412.312256	154.360000
412.405884	154.900000
412.499512	154.760000
412.593170	155.300000
412.686798	155.280000
412.780426	153.980000
412.874054	153.840000
412.967682	153.920000
413.061310	154.060000
413.154968	154.340000
413.248566	154.680000
413.342224	154.340000
413.435852	154.920000
413.529510	154.580000
413.623108	153.900000
413.716766	153.900000
413.810364	154.380000
413.904022	153.960000
413.997650	153.600000
414.091309	154.500000
414.184906	154.560000
414.278564	153.940000
414.372192	154.300000
414.465851	154.740000
414.559479	154.280000
414.653107	154.980000
414.746735	154.900000
414.840393	154.780000
414.934021	154.600000
415.027649	154.220000
415.121277	153.840000
415.214935	154.260000
415.308563	154.260000
415.402191	153.800000
415.495850	154.020000
415.589478	153.580000
415.683136	153.480000
415.776733	153.380000
415.870422	154.100000
415.964020	153.620000
416.057678	153.740000
416.151306	153.700000
416.244965	153.560000
416.338562	153.120000
416.432251	154.040000
416.525848	154.900000
416.619507	155.140000
416.713165	155.780000
416.806793	155.920000
416.900421	155.640000
416.994080	154.620000
417.087708	154.420000
417.181366	153.640000
417.274994	153.660000
417.368622	153.900000
417.462280	154.860000
417.555908	154.920000
417.649567	154.960000
417.743195	154.920000
417.836853	154.720000
417.930481	154.480000
418.024170	154.200000
418.117767	154.580000
418.211426	155.080000
418.305054	155.280000
418.398712	154.640000
418.492340	154.900000
418.585999	155.180000
418.679626	154.820000
418.773285	154.520000
418.866913	154.940000
418.960571	155.120000
419.054230	155.060000
419.147858	155.080000
419.241516	155.400000
419.335144	155.120000
419.428802	154.920000
419.522461	154.500000
419.616089	154.260000
419.709747	154.160000
419.803375	154.460000
419.897034	154.220000
419.990662	154.160000
420.084320	154.460000
420.177979	154.720000
420.271606	154.900000
420.365295	155.840000
420.458893	156.260000
420.552582	156.480000
420.646210	156.360000
420.739868	155.600000
420.833496	154.540000
420.927155	154.020000
421.020782	153.500000
421.114471	153.040000
421.208069	153.480000
421.301758	154.220000
421.395386	154.440000
421.489044	154.480000
421.582703	154.680000
421.676361	155.340000
421.769989	154.680000
421.863647	155.100000
421.957306	155.480000
422.050934	155.660000
422.144592	155.280000
422.238251	154.980000
422.331909	154.640000
422.425537	154.500000
422.519196	154.220000
422.612854	153.780000
422.706543	153.720000
422.800140	153.820000
422.893829	153.380000
422.987457	153.220000
423.081146	153.300000
423.174744	154.480000
423.268433	153.980000
423.362061	153.940000
423.455750	153.980000
423.549347	154.040000
423.643036	152.880000
423.736664	153.540000
423.830353	153.940000
423.924011	154.180000
424.017639	153.640000
424.111298	153.940000
424.204956	153.460000
424.298615	153.480000
424.392273	153.360000
424.485931	153.820000
424.579559	154.140000
424.673218	154.380000
424.766876	154.360000
424.860535	154.020000
424.954193	153.900000
425.047882	154.200000
425.141510	153.940000
425.235199	154.200000
425.328796	154.360000
425.422485	154.240000
425.516113	153.860000
425.609802	154.060000
425.703430	153.780000
425.797119	153.680000
425.890747	153.840000
425.984436	153.680000
426.078064	154.040000
426.171753	153.740000
426.265411	153.580000
426.359070	153.720000
426.452728	153.840000
426.546356	153.240000
426.640015	153.700000
426.733673	153.840000
426.827332	153.420000
426.920990	154.200000
427.014648	154.120000
427.108307	153.920000
427.201965	154.440000
427.295624	155.040000
427.389282	154.140000
427.482941	154.620000
427.576630	154.540000
427.670258	154.180000
427.763947	153.760000
427.857574	153.900000
427.951263	154.000000
428.044922	153.740000
428.138611	153.660000
428.232239	154.240000
428.325928	154.560000
428.419556	154.920000
428.513245	154.820000
428.606903	155.420000
428.700562	154.940000
428.794220	154.180000
428.887878	153.440000
428.981537	153.980000
429.075195	153.580000
429.168854	153.840000
429.262512	154.300000
429.356201	154.520000
429.449860	154.420000
429.543518	154.400000
429.637177	154.760000
429.730835	154.700000
429.824493	154.440000
429.918182	154.800000
430.011810	154.440000
430.105530	153.820000
430.199158	154.140000
430.292847	154.360000
430.386475	154.140000
430.480164	154.400000
430.573792	154.020000
430.667511	153.660000
430.761139	153.800000
430.854828	154.420000
430.948456	154.540000
431.042145	155.340000
431.135834	155.500000
431.229492	155.500000
431.323151	155.120000
431.416809	155.140000
431.510468	154.840000
431.604156	154.740000
431.697815	154.980000
431.791473	154.320000
431.885132	154.160000
431.978821	154.460000
432.072479	155.000000
432.166138	155.240000
432.259827	155.780000
432.353485	156.000000
432.447174	155.940000
432.540802	155.600000
432.634491	155.280000
432.728149	155.400000
432.821838	155.880000
432.915466	155.740000
433.009186	155.880000
433.102814	155.340000
433.196503	155.040000
433.290131	154.560000
433.383850	155.000000
433.477509	154.880000
433.571167	155.840000
433.664856	156.580000
433.758514	157.260000
433.852173	157.020000
433.945862	156.800000
434.039520	156.240000
434.133179	155.380000
434.226868	154.700000
434.320526	154.100000
434.414185	154.900000
434.507874	154.640000
434.601562	155.060000
434.695221	154.840000
434.788910	155.420000
434.882538	154.940000
434.976257	154.720000
435.069885	154.560000
435.163574	155.040000
435.257233	154.320000
435.350922	154.400000
435.444580	154.640000
435.538269	154.440000
435.631897	154.580000
435.725616	155.320000
435.819275	155.560000
435.912964	156.340000
436.006622	156.900000
436.100311	156.560000
436.193970	155.920000
436.287628	155.580000
436.381317	155.000000
436.474976	154.240000
436.568665	154.040000
436.662323	154.460000
436.756012	154.460000
436.849670	154.480000
436.943390	154.680000
437.037018	154.620000
437.130737	154.380000
437.224365	154.200000
437.318085	154.180000
437.411713	154.400000
437.505432	155.080000
437.599060	155.880000
437.692780	156.140000
437.786407	156.220000
437.880127	155.980000
437.973755	155.440000
438.067474	154.700000
438.161133	154.840000
438.254822	155.140000
438.348480	154.980000
438.442169	155.560000
438.535828	156.220000
438.629517	155.780000
438.723175	155.200000
438.816864	155.860000
438.910553	155.200000
439.004211	154.460000
439.097900	154.440000
439.191559	154.400000
439.285248	153.380000
439.378906	153.700000
439.472626	153.720000
439.566284	153.420000
439.659973	153.800000
439.753632	153.920000
439.847321	154.300000
439.940979	154.300000
440.034698	154.500000
440.128326	154.160000
440.222046	154.300000
440.315674	153.280000
440.409393	153.560000
440.503082	153.500000
440.596741	153.560000
440.690430	153.720000
440.784088	154.020000
440.877777	153.560000
440.971466	153.500000
441.065125	153.060000
441.158813	152.860000
441.252502	152.840000
441.346161	153.160000
441.439850	153.480000
441.533539	153.620000
441.627197	153.900000
441.720886	153.680000
441.814606	153.820000
441.908234	154.240000
442.001953	154.240000
442.095612	154.140000
442.189301	154.540000
442.282959	154.500000
442.376678	153.420000
442.470306	154.300000
442.564026	154.140000
442.657684	153.900000
442.751404	153.660000
442.845032	154.800000
442.938751	153.880000
443.032440	153.980000
443.126099	154.140000
443.219788	154.780000
443.313477	154.280000
443.407166	154.840000
443.500824	154.940000
443.594513	154.700000
443.688202	154.400000
443.781891	153.980000
443.875549	153.300000
443.969238	153.320000
444.062927	153.740000
444.156647	153.380000
444.250275	153.980000
444.343994	154.540000
444.437653	154.720000
444.531372	154.560000
444.625031	154.460000
444.718719	153.940000
444.812378	153.560000
444.906097	153.220000
444.999756	152.840000
445.093445	153.280000
445.187103	153.580000
445.280823	154.440000
445.374512	153.920000
445.468201	154.240000
445.561859	153.940000
445.655548	154.000000
445.749237	152.740000
445.842926	153.320000
445.936615	153.680000
446.030304	153.720000
446.123962	153.880000
446.217651	154.380000
446.311340	154.700000
446.405029	153.840000
446.498749	153.440000
446.592407	152.920000
446.686096	152.800000
446.779755	152.640000
446.873474	153.200000
446.967133	153.320000
447.060852	153.300000
447.154510	153.600000
447.248230	153.500000
447.341858	153.480000
447.435577	153.500000
447.529236	153.120000
447.622955	152.640000
447.716644	152.620000
447.810333	152.480000
447.904022	152.640000
447.997711	152.680000
448.091400	153.380000
448.185059	153.180000
448.278748	153.600000
448.372437	153.400000
448.466125	154.120000
448.559814	153.800000
448.653503	154.280000
448.747192	154.260000
448.840912	155.120000
448.934570	154.820000
449.028290	154.760000
449.121948	154.360000
449.215637	153.700000
449.309296	152.940000
449.403015	153.220000
449.496674	153.440000
449.590393	153.560000
449.684052	153.640000
449.777771	154.420000
449.871429	153.680000
449.965149	153.500000
450.058838	153.460000
450.152527	154.260000
450.246216	153.640000
450.339905	154.100000
450.433594	153.960000
450.527283	154.940000
450.620972	154.200000
450.714661	154.220000
450.808350	154.280000
450.902039	154.600000
450.995728	153.820000
451.089417	153.700000
451.183105	153.980000
451.276794	154.520000
451.370514	154.020000
451.464172	153.360000
451.557892	153.380000
451.651550	153.500000
451.745270	152.800000
451.838928	152.260000
451.932648	153.080000
452.026306	153.480000
452.120026	152.700000
452.213684	153.120000
452.307404	153.920000
452.401062	154.000000
452.494781	154.160000
452.588470	154.600000
452.682159	154.140000
452.775848	154.240000
452.869537	153.420000
452.963226	152.920000
453.056915	152.820000
453.150604	152.720000
453.244293	152.620000
453.337982	153.600000
453.431671	154.060000
453.525360	154.560000
453.619049	155.020000
453.712769	155.160000
453.806427	154.300000
453.900146	153.720000
453.993805	153.280000
454.087555	153.400000
454.181213	153.320000
454.274933	153.760000
454.368591	153.920000
454.462311	153.960000
454.555969	153.420000
454.649689	154.520000
454.743347	154.180000
454.837067	154.860000
454.930756	155.480000
455.024445	155.980000
455.118134	154.820000
455.211853	155.000000
455.305542	154.540000
455.399231	154.300000
455.492920	154.120000
455.586609	154.340000
455.680298	154.800000
455.773987	154.360000
455.867676	154.060000
455.961365	154.200000
456.055084	154.080000
456.148773	153.340000
456.242493	153.760000
456.336151	153.820000
456.429871	154.080000
456.523529	154.420000
456.617249	154.320000
456.710907	155.060000
456.804626	154.840000
456.898315	154.140000
456.992035	154.080000
457.085693	153.920000
457.179413	152.640000
457.273102	153.560000
457.366791	153.680000
457.460480	154.060000
457.554199	155.260000
457.647888	155.620000
457.741577	155.080000
457.835266	155.320000
457.928955	154.940000
458.022644	154.760000
458.116364	155.140000
458.210052	154.700000
458.303741	154.600000
458.397461	153.960000
458.491119	153.000000
458.584839	152.920000
458.678528	152.740000
458.772247	152.500000
458.865906	152.920000
458.959625	154.040000
459.053284	153.820000
459.147003	153.780000
459.240692	154.480000
459.334412	154.400000
459.428070	153.860000
459.521790	153.860000
459.615479	153.980000
459.709198	154.060000
459.802887	153.600000
459.896576	153.360000
459.990265	153.420000
460.083954	153.940000
460.177673	153.120000
460.271362	153.560000
460.365051	153.540000
460.458740	153.280000
460.552429	152.420000
460.646149	152.700000
460.739838	152.140000
460.833527	152.460000
460.927246	152.360000
461.020905	152.340000
461.114655	152.160000
461.208313	153.000000
461.302032	152.480000
461.395691	152.840000
461.489441	153.340000
461.583099	153.340000
461.676819	152.720000
461.770477	153.460000
461.864197	153.040000
461.957916	153.040000
462.051605	152.780000
462.145294	153.720000
462.238983	153.100000
462.332703	154.140000
462.426392	154.600000
462.520081	154.900000
462.613770	154.580000
462.707489	154.860000
462.801178	154.300000
462.894867	153.920000
462.988556	154.000000
463.082275	153.660000
463.175964	153.360000
463.269684	153.360000
463.363342	153.320000
463.457092	152.600000
463.550751	153.000000
463.644470	153.080000
463.738129	153.120000
463.831879	153.360000
463.925537	154.700000
464.019257	154.340000
464.112946	154.660000
464.206665	154.300000
464.300323	153.900000
464.394043	153.260000
464.487762	153.360000
464.581451	153.560000
464.675140	153.500000
464.768829	153.960000
464.862549	154.200000
464.956238	154.420000
465.049927	154.020000
465.143646	154.800000
465.237335	154.000000
465.331024	154.060000
465.424713	153.980000
465.518433	153.980000
465.612152	153.340000
465.705811	153.820000
465.799561	153.700000
465.893219	153.380000
465.986938	153.740000
466.080597	153.740000
466.174347	153.940000
466.268005	154.220000
466.361725	154.120000
466.455414	153.640000
466.549133	153.540000
466.642792	153.580000
466.736542	152.840000
466.830231	153.200000
466.923920	153.360000
467.017609	153.300000
467.111328	153.260000
467.205017	153.440000
467.298706	153.140000
467.392426	153.120000
467.486115	153.540000
467.579803	153.000000
467.673523	153.380000
467.767212	153.720000
467.860901	153.460000
467.954651	153.700000
468.048309	153.980000
468.142029	153.820000
468.235718	153.920000
468.329437	154.080000
468.423096	153.740000
468.516846	153.680000
468.610504	153.200000
468.704224	152.580000
468.797913	152.740000
468.891632	152.920000
468.985291	153.020000
469.079010	153.440000
469.172729	153.300000
469.266418	153.840000
469.360107	153.980000
469.453827	153.780000
469.547516	153.480000
469.641205	154.120000
469.734924	153.680000
469.828613	153.820000
469.922302	154.040000
470.016022	154.180000
470.109711	154.040000
470.203430	153.640000
470.297150	152.460000
470.390808	152.800000
470.484558	152.740000
470.578217	153.160000
470.671936	153.580000
470.765625	155.140000
470.859344	154.540000
470.953003	155.160000
471.046753	154.520000
471.140411	154.040000
471.234131	153.280000
471.327820	153.860000
471.421539	153.060000
471.515228	152.860000
471.608948	153.160000
471.702637	152.820000
471.796326	152.560000
471.890045	153.120000
471.983734	153.500000
472.077423	153.360000
472.171143	153.900000
472.264832	153.680000
472.358521	153.520000
472.452240	153.380000
472.545929	153.920000
472.639648	153.680000
472.733337	154.080000
472.827057	154.360000
472.920746	154.560000
473.014465	154.640000
473.108124	154.780000
473.201874	154.860000
473.295532	154.580000
473.389252	154.940000
473.482941	154.860000
473.576660	154.700000
473.670319	154.300000
473.764069	154.620000
473.857727	154.500000
473.951477	154.620000
474.045166	155.080000
474.138855	155.100000
474.232574	154.640000
474.326263	154.760000
474.419952	154.880000
474.513672	154.500000
474.607361	154.520000
474.701050	154.960000
474.794769	155.080000
474.888458	155.040000
474.982178	155.300000
475.075867	155.480000
475.169586	155.100000
475.263275	154.760000
475.356995	154.400000
475.450653	153.780000
475.544403	153.480000
475.638062	154.560000
475.731812	154.260000
475.825470	154.060000
475.919189	154.560000
476.012878	154.940000
476.106598	154.060000
476.200256	154.440000
476.294006	154.540000
476.387695	154.660000
476.481384	154.320000
476.575104	154.360000
476.668793	154.000000
476.762512	153.620000
476.856201	154.040000
476.949890	153.940000
477.043610	153.480000
477.137299	153.560000
477.230988	154.100000
477.324707	153.480000
477.418396	154.080000
477.512146	154.480000
477.605804	154.340000
477.699524	154.200000
477.793213	153.960000
477.886932	153.620000
477.980591	153.560000
478.074341	153.420000
478.167999	152.860000
478.261749	152.960000
478.355408	152.900000
478.449127	153.100000
478.542816	154.320000
478.636536	155.180000
478.730225	155.600000
478.823944	155.820000
478.917633	155.740000
479.011322	155.040000
479.105042	154.840000
479.198730	154.600000
479.292450	154.820000
479.386139	154.980000
479.479828	155.280000
479.573547	155.340000
479.667267	155.600000
479.760925	155.300000
479.854675	154.980000
479.948334	154.600000
480.042084	154.320000
480.135742	154.220000
480.229462	153.700000
480.323151	153.920000
480.416870	153.500000
480.510529	153.600000
480.604279	153.160000
480.697937	154.080000
480.791656	153.420000
480.885345	153.100000
480.979065	152.960000
481.072754	153.360000
481.166473	153.240000
481.260132	153.940000
481.353882	154.580000
481.447540	154.600000
481.541260	154.620000
481.635010	153.900000
481.728668	153.540000
481.822388	153.280000
481.916077	153.200000
482.009796	152.900000
482.103485	153.380000
482.197205	153.400000
482.290863	153.720000
482.384613	153.720000
482.478271	153.300000
482.571991	153.460000
482.665680	153.500000
482.759399	154.040000
482.853058	154.760000
482.946808	155.040000
483.040466	154.680000
483.134216	154.440000
483.227875	153.760000
483.321594	153.980000
483.415283	154.320000
483.509003	154.140000
483.602661	154.380000
483.696411	154.560000
483.790070	153.800000
483.883789	153.700000
483.977478	154.260000
484.071198	154.240000
484.164917	153.820000
484.258606	153.580000
484.352325	153.880000
484.445984	153.720000
484.539734	153.680000
484.633392	153.400000
484.727142	154.140000
484.820801	153.680000
484.914520	153.500000
485.008209	153.660000
485.101929	154.520000
485.195587	153.720000
485.289337	153.940000
485.382996	154.360000
485.476715	154.360000
485.570404	154.500000
485.664124	154.880000
485.757782	155.460000
485.851532	154.680000
485.945190	154.600000
486.038910	154.340000
486.132599	154.720000
486.226318	153.760000
486.319977	154.020000
486.413727	154.460000
486.507446	154.020000
486.601105	153.280000
486.694855	153.160000
486.788513	152.900000
486.882233	152.420000
486.975922	152.660000
487.069641	152.840000
487.163300	152.740000
487.257050	154.120000
487.350708	153.940000
487.444427	153.920000
487.538116	153.960000
487.631836	154.100000
487.725494	153.300000
487.819214	153.580000
487.912903	153.440000
488.006622	153.660000
488.100281	153.880000
488.194031	153.880000
488.287689	154.160000
488.381409	154.940000
488.475098	154.840000
488.568817	155.160000
488.662476	154.660000
488.756226	154.080000
488.849945	153.060000
488.943604	153.140000
489.037354	153.200000
489.131012	153.460000
489.224731	153.440000
489.318390	153.860000
489.412140	153.660000
489.505798	153.420000
489.599518	153.080000
489.693207	153.580000
489.786926	153.360000
489.880585	153.380000
489.974335	153.480000
490.067993	155.100000
490.161713	155.200000
490.255371	156.100000
490.349121	156.560000
490.442780	156.360000
490.536499	154.900000
490.630188	154.640000
490.723907	153.800000
490.817566	153.680000
490.911285	153.680000
491.004974	153.560000
491.098694	153.000000
491.192413	153.900000
491.286102	153.420000
491.379822	153.480000
491.473480	153.980000
491.567200	154.420000
491.660889	153.080000
491.754608	153.120000
491.848267	153.120000
491.941986	152.640000
492.035675	152.780000
492.129395	154.000000
492.223053	154.020000
492.316772	154.100000
492.410461	154.160000
492.504181	154.320000
492.597839	153.500000
492.691559	153.980000
492.785248	154.260000
492.878967	154.460000
492.972626	153.960000
493.066345	154.060000
493.160034	153.340000
493.253754	152.940000
493.347412	152.680000
493.441132	152.840000
493.534882	153.500000
493.628540	153.920000
493.722260	154.200000
493.815918	154.800000
493.909668	155.320000
494.003326	155.200000
494.097046	155.040000
494.190704	154.740000
494.284454	154.580000
494.378113	154.560000
494.471832	154.500000
494.565491	154.320000
494.659210	154.380000
494.752899	154.180000
494.846619	153.720000
494.940277	153.620000
495.033997	153.720000
495.127686	153.760000
495.221405	153.780000
495.315063	153.880000
495.408783	153.800000
495.502441	153.940000
495.596191	153.900000
495.689850	153.640000
495.783569	154.020000
495.877228	153.840000
495.970947	153.640000
496.064697	153.540000
496.158356	154.600000
496.252075	154.040000
496.345734	153.920000
496.439453	154.740000
496.533142	155.020000
496.626862	154.780000
496.720520	154.980000
496.814240	155.240000
496.907898	154.600000
497.001617	154.540000
497.095306	153.740000
497.189026	153.740000
497.282684	153.880000
497.376404	154.300000
497.470062	153.800000
497.563782	154.080000
497.657471	154.120000
497.751190	153.860000
497.844849	153.680000
497.938568	154.420000
498.032227	154.600000
498.125946	154.520000
498.219635	154.420000
498.313354	154.460000
498.407074	154.020000
498.500732	154.000000
498.594452	154.020000
498.688110	153.860000
498.781830	153.100000
498.875519	153.080000
498.969238	152.940000
499.062897	152.740000
499.156616	153.520000
499.250275	154.260000
499.343994	153.860000
499.437653	153.860000
499.531372	154.300000
499.625061	154.360000
499.718781	154.400000
499.812439	155.340000
499.906158	155.200000
499.999817	154.740000
500.093536	154.300000
500.187195	154.300000
500.280914	153.780000
500.374573	154.060000
500.468323	154.060000
500.561981	154.020000
500.655701	153.300000
500.749420	153.460000
500.843079	153.580000
500.936798	153.780000
501.030457	154.100000
501.124176	154.740000
501.217834	154.380000
501.311554	154.220000
501.405212	154.060000
501.498962	153.320000
501.592621	153.140000
501.686340	153.780000
501.779999	153.800000
501.873718	153.840000
501.967377	154.440000
502.061096	154.700000
502.154755	153.900000
502.248474	153.900000
502.342133	153.900000
502.435852	153.540000
502.529510	153.960000
502.623230	154.720000
502.716888	153.980000
502.810608	153.960000
502.904266	154.320000
502.997986	153.520000
503.091705	153.020000
503.185364	153.540000
503.279083	153.900000
503.372772	153.700000
503.466492	153.620000
503.560150	153.800000
503.653870	154.000000
503.747528	153.760000
503.841248	153.760000
503.934906	154.040000
504.028625	153.760000
504.122284	153.940000
504.216003	154.780000
504.309662	154.260000
504.403381	154.360000
504.497040	154.500000
504.590759	154.080000
504.684418	153.620000
504.778137	154.140000
504.871796	154.340000
504.965515	154.240000
505.059174	154.620000
505.152893	153.960000
505.246521	153.880000
505.340240	153.640000
505.433899	153.640000
505.527618	153.460000
505.621338	153.980000
505.714996	153.920000
505.808716	153.680000
505.902374	154.380000
505.996094	154.500000
506.089752	154.300000
506.183472	154.420000
506.277130	154.780000
506.370850	154.480000
506.464508	154.160000
506.558228	154.240000
506.651886	153.880000
506.745605	153.520000
506.839264	153.320000
506.932983	153.600000
507.026611	153.520000
507.120331	153.920000
507.213989	153.460000
507.307709	153.780000
507.401367	154.100000
507.495087	154.760000
507.588745	154.500000
507.682465	155.620000
507.776123	155.260000
507.869843	154.720000
507.963531	154.500000
508.057190	155.020000
508.150909	154.180000
508.244568	154.380000
508.338287	154.500000
508.431946	153.900000
508.525665	153.500000
508.619324	153.620000
508.713013	153.760000
508.806671	153.880000
508.900391	155.060000
508.994049	155.260000
509.087769	154.980000
509.181427	154.920000
509.275146	154.680000
509.368774	153.500000
509.462494	153.260000
509.556152	153.320000
509.649872	153.540000
509.743530	153.660000
509.837250	153.860000
509.930878	154.200000
510.024597	154.540000
510.118256	154.000000
510.211975	153.900000
510.305695	153.800000
510.399353	153.840000
510.493042	154.200000
510.586700	154.580000
510.680420	155.500000
510.774078	155.600000
510.867798	155.540000
510.961426	155.040000
511.055145	154.720000
511.148804	153.980000
511.242523	154.360000
511.336151	154.460000
511.429871	154.900000
511.523529	155.180000
511.617249	154.940000
511.710876	154.780000
511.804596	154.000000
511.898254	153.520000
511.991974	153.420000
512.085632	153.140000
512.179321	152.920000
512.272949	153.760000
512.366699	154.140000
512.460327	153.920000
512.554077	155.100000
512.647766	155.520000
512.741394	155.320000
512.835144	155.840000
512.928772	155.720000
513.022461	155.060000
513.116150	154.260000
513.209839	154.660000
513.303467	153.900000
513.397217	153.660000
513.490845	153.540000
513.584595	153.560000
513.678223	152.860000
513.771912	152.400000
513.865601	152.820000
513.959290	152.900000
514.052917	153.280000
514.146667	154.080000
514.240295	154.400000
514.333984	154.760000
514.427673	154.360000
514.521362	154.880000
514.614990	153.820000
514.708740	154.140000
514.802368	154.040000
514.896057	154.280000
514.989746	154.140000
515.083435	154.040000
515.177124	154.240000
515.270752	153.680000
515.364502	153.660000
515.458130	153.720000
515.551819	153.800000
515.645508	153.460000
515.739197	153.780000
515.832825	153.960000
515.926575	153.300000
516.020203	153.860000
516.113892	154.480000
516.207520	154.440000
516.301270	154.460000
516.394897	154.780000
516.488586	155.080000
516.582275	154.640000
516.675964	153.960000
516.769592	153.860000
516.863281	154.540000
516.956970	154.500000
517.050659	154.340000
517.144287	154.980000
517.238037	155.020000
517.331665	153.980000
517.425354	153.460000
517.519043	153.540000
517.612732	153.800000
517.706421	153.500000
517.800049	153.840000
517.893738	153.620000
517.987427	153.420000
518.081116	152.960000
518.174744	152.900000
518.268433	152.940000
518.362122	153.860000
518.455811	153.980000
518.549438	154.960000
518.643127	155.960000
518.736816	155.940000
518.830505	155.100000
518.924133	154.920000
519.017822	154.580000
519.111511	153.920000
519.205200	154.300000
519.298828	154.400000
519.392517	154.200000
519.486206	154.200000
519.579895	154.320000
519.673523	153.900000
519.767212	154.180000
519.860901	155.020000
519.954590	154.500000
520.048279	153.840000
520.141907	154.040000
520.235596	154.580000
520.329224	154.460000
520.422974	154.520000
520.516602	155.000000
520.610291	154.520000
520.703918	154.100000
520.797607	153.500000
520.891296	153.380000
520.984985	153.700000
521.078613	154.520000
521.172302	154.020000
521.265930	155.100000
521.359680	156.040000
521.453308	155.700000
521.546997	154.880000
521.640625	155.080000
521.734314	154.300000
521.827942	153.860000
521.921692	154.300000
522.015320	154.460000
522.109009	154.400000
522.202698	154.460000
522.296326	154.200000
522.390015	154.180000
522.483704	154.500000
522.577393	154.440000
522.671021	154.160000
522.764709	153.920000
522.858337	153.940000
522.952026	153.740000
523.045654	154.400000
523.139404	154.920000
523.233032	155.100000
523.326721	154.700000
523.420349	154.680000
523.514038	153.780000
523.607666	154.120000
523.701355	154.000000
523.795044	153.960000
523.888733	154.200000
523.982361	154.720000
524.076050	154.020000
524.169678	154.460000
524.263367	154.120000
524.356995	153.760000
524.450684	153.600000
524.544373	153.320000
524.638062	152.980000
524.731750	153.600000
524.825378	153.580000
524.919067	153.380000
525.012695	153.920000
525.106384	153.500000
525.200012	153.480000
525.293701	153.360000
525.387329	153.680000
525.481018	153.400000
525.574646	154.040000
525.668396	153.820000
525.762024	154.500000
525.855713	154.800000
525.949341	154.620000
526.043030	154.420000
526.136658	154.460000
526.230347	153.780000
526.323975	153.100000
526.417664	153.140000
526.511292	153.280000
526.604980	153.400000
526.698608	153.380000
526.792297	153.540000
526.885925	154.060000
526.979614	154.260000
527.073303	154.240000
527.166931	154.780000
527.260620	155.100000
527.354309	155.380000
527.447998	155.060000
527.541626	154.620000
527.635315	154.280000
527.728943	154.660000
527.822632	154.720000
527.916260	154.760000
528.009949	155.200000
528.103577	155.000000
528.197266	154.320000
528.290894	154.200000
528.384583	153.980000
528.478210	153.840000
528.571899	154.240000
528.665527	154.640000
528.759216	154.400000
528.852844	155.080000
528.946533	155.000000
529.040161	154.780000
529.133850	154.200000
529.227478	154.400000
529.321167	154.360000
529.414856	155.040000
529.508484	155.580000
529.602173	155.560000
529.695801	155.160000
529.789490	154.960000
529.883057	154.580000
529.976746	154.520000
530.070374	155.280000
530.164062	155.320000
530.257690	155.500000
530.351379	155.580000
530.445007	155.140000
530.538696	154.340000
530.632324	155.040000
530.726013	154.640000
530.819641	154.360000
530.913330	154.400000
531.006958	154.640000
531.100647	154.220000
531.194275	154.440000
531.287964	154.340000
531.381592	154.200000
531.475220	154.120000
531.568848	153.640000
531.662537	153.440000
531.756226	153.980000
531.849854	154.000000
531.943542	154.340000
532.037170	154.040000
532.130859	154.500000
532.224487	153.940000
532.318176	153.840000
532.411804	154.280000
532.505432	154.940000
532.599060	154.680000
532.692749	154.760000
532.786377	155.000000
532.880066	154.300000
532.973694	153.580000
533.067383	153.360000
533.161011	153.320000
533.254639	153.140000
533.348267	153.040000
533.441956	153.820000
533.535583	153.600000
533.629272	153.900000
533.722900	153.700000
533.816589	153.500000
533.910156	153.640000
534.003845	153.540000
534.097534	153.720000
534.191162	154.540000
534.284851	154.920000
534.378479	154.280000
534.472107	154.600000
534.565735	153.960000
534.659424	153.740000
534.753052	153.880000
534.846741	153.760000
534.940369	154.680000
535.033997	155.180000
535.127625	154.860000
535.221313	155.360000
535.314941	155.480000
535.408630	154.260000
535.502197	154.360000
535.595886	154.400000
535.689514	153.760000
535.783203	154.360000
535.876831	155.020000
535.970459	154.800000
536.064087	154.300000
536.157776	154.320000
536.251404	154.120000
536.345093	153.740000
536.438721	153.800000
536.532349	154.380000
536.626038	154.180000
536.719666	154.120000
536.813293	153.960000
536.906921	153.740000
537.000610	154.180000
537.094238	154.440000
537.187866	154.340000
537.281494	154.320000
537.375183	154.480000
537.468811	153.840000
537.562439	153.860000
537.656067	153.780000
537.749756	153.940000
537.843384	154.420000
537.937012	155.040000
538.030640	154.740000
538.124329	154.800000
538.217896	155.060000
538.311584	154.940000
538.405212	154.500000
538.498901	154.880000
538.592468	155.660000
538.686157	154.840000
538.779785	153.740000
538.873413	153.900000
538.967102	153.360000
539.060730	152.300000
539.154358	153.020000
539.247986	153.800000
539.341675	153.440000
539.435242	153.680000
539.528931	154.260000
539.622559	153.940000
539.716187	154.440000
539.809814	154.400000
539.903503	154.360000
539.997070	153.940000
540.090759	154.220000
540.184387	153.620000
540.278015	154.280000
540.371643	154.360000
540.465332	154.600000
540.558899	154.240000
540.652588	154.200000
540.746216	153.660000
540.839844	153.940000
540.933472	153.620000
541.027100	153.580000
541.120728	153.660000
541.214417	153.820000
541.308044	154.060000
541.401672	154.060000
541.495300	154.220000
541.588928	154.380000
541.682617	154.220000
541.776184	153.680000
541.869873	154.100000
541.963440	154.280000
542.057129	154.000000
542.150757	153.980000
542.244385	153.820000
542.338013	153.200000
542.431641	153.120000
542.525269	153.060000
542.618958	153.580000
542.712524	153.880000
542.806213	153.960000
542.899780	154.180000
542.993469	154.040000
543.087036	153.440000
543.180725	153.220000
543.274292	153.520000
543.367981	153.380000
543.461548	153.800000
543.555237	154.080000
543.648926	154.440000
543.742493	155.320000
543.836182	155.360000
543.929749	155.200000
544.023437	155.220000
544.117004	155.360000
544.210693	155.040000
544.304260	154.940000
544.397949	154.900000
544.491516	155.000000
544.585205	154.340000
544.678772	153.660000
544.772461	154.000000
544.866028	153.820000
544.959717	153.760000
545.053284	153.900000
545.146973	154.300000
545.240540	153.920000
545.334229	154.580000
545.427795	154.520000
545.521423	154.620000
545.615051	154.520000
545.708679	155.200000
545.802307	155.020000
545.895935	155.220000
545.989624	156.120000
546.083191	156.140000
546.176880	155.660000
546.270447	155.100000
546.364136	155.360000
546.457703	154.620000
546.551331	154.560000
546.644958	154.760000
546.738586	155.280000
546.832214	154.720000
546.925842	154.680000
547.019409	154.720000
547.113098	154.320000
547.206665	153.920000
547.300354	153.960000
547.393921	154.020000
547.487549	154.220000
547.581177	154.000000
547.674805	153.920000
547.768433	153.240000
547.862061	153.380000
547.955627	152.820000
548.049316	153.640000
548.142883	154.080000
548.236572	155.000000
548.330139	155.040000
548.423767	155.040000
548.517456	154.700000
548.611023	154.860000
548.704651	154.280000
548.798279	154.120000
548.891907	154.760000
548.985474	154.720000
549.079163	154.620000
549.172729	154.600000
549.266357	154.020000
549.359985	154.020000
549.453613	153.280000
549.547180	153.020000
549.640869	153.600000
549.734436	154.000000
549.828064	154.380000
549.921631	154.560000
550.015320	154.520000
550.108887	154.780000
550.202515	154.980000
550.296143	154.260000
550.389771	154.660000
550.483337	154.660000
550.576965	154.160000
550.670593	154.660000
550.764221	154.780000
550.857849	154.780000
550.951477	154.440000
551.045105	154.300000
551.138672	153.940000
551.232300	153.500000
551.325928	153.480000
551.419556	153.980000
551.513123	154.160000
551.606750	153.840000
551.700378	154.060000
551.794006	154.320000
551.887573	154.100000
551.981201	154.540000
552.074768	154.500000
552.168457	154.160000
552.262024	154.900000
552.355652	155.160000
552.449219	155.340000
552.542847	155.440000
552.636475	155.620000
552.730103	154.240000
552.823669	153.920000
552.917297	153.000000
553.010864	153.180000
553.104553	153.620000
553.198181	153.640000
553.291748	154.120000
553.385376	154.540000
553.478943	154.280000
553.572571	153.880000
553.666199	154.360000
553.759827	153.860000
553.853394	153.360000
553.947021	153.380000
554.040588	153.560000
554.134216	153.400000
554.227783	154.400000
554.321411	155.400000
554.415039	155.200000
554.508667	155.200000
554.602234	155.520000
554.695862	154.340000
554.789429	154.220000
554.883057	154.420000
554.976624	154.280000
555.070251	154.120000
555.163818	154.180000
555.257507	153.960000
555.351074	154.200000
555.444702	155.440000
555.538330	154.920000
555.631897	155.500000
555.725525	155.080000
555.819092	154.740000
555.912720	153.320000
556.006287	154.140000
556.099915	153.820000
556.193481	154.180000
556.287109	154.340000
556.380676	154.280000
556.474304	154.260000
556.567871	154.720000
556.661499	154.220000
556.755066	154.280000
556.848694	154.640000
556.942261	154.300000
557.035889	154.180000
557.129517	154.640000
557.223145	155.020000
557.316711	154.960000
557.410339	154.840000
557.503906	154.540000
557.597473	154.840000
557.691040	154.380000
557.784668	154.200000
557.878296	154.320000
557.971863	154.240000
558.065491	153.760000
558.159058	153.740000
558.252686	154.880000
558.346252	155.580000
558.439880	155.320000
558.533447	155.320000
558.627075	154.900000
558.720642	153.960000
558.814270	153.420000
558.907837	153.600000
559.001465	153.360000
559.095032	154.040000
559.188660	154.420000
559.282227	153.660000
559.375854	154.280000
559.469360	154.260000
559.562988	154.620000
559.656555	154.200000
559.750183	154.780000
559.843750	154.800000
559.937378	154.920000
560.030945	154.680000
560.124573	0.000000
560.218140	0.000000
560.311707	0.000000
560.405334	0.000000
560.498901	0.000000
560.592529	0.000000
560.686096	0.000000
560.779724	0.000000
560.873291	0.000000
560.966858	0.000000
561.060425	0.000000
561.154053	0.000000
561.247620	0.000000
561.341248	0.000000
561.434814	0.000000
561.528381	0.000000
561.621948	0.000000
561.715576	0.000000
561.809143	0.000000
561.902771	0.000000
561.996277	0.000000
562.089905	0.000000
562.183472	0.000000
562.277100	0.000000
