Model Number: SPM-002-B   
Serial Number: 70087108
Firmware Version: 004.15.4
Exposure Time: 100000.000000us
Data Taken on: 15-01-2021 16:41:39.274
Wavelength	Amplitude
221.570786	0.000000
221.663406	0.000000
221.756027	0.000000
221.848648	0.000000
221.941269	0.000000
222.033905	0.000000
222.126526	0.000000
222.219162	0.000000
222.311798	0.000000
222.404419	0.000000
222.497055	0.000000
222.589676	0.000000
222.682312	0.000000
222.774933	0.000000
222.867569	0.000000
222.960205	0.000000
223.052841	0.000000
223.145462	0.000000
223.238098	0.000000
223.330734	0.000000
223.423386	0.000000
223.516022	0.000000
223.608658	0.000000
223.701309	0.000000
223.793945	0.000000
223.886581	0.000000
223.979218	0.000000
224.071869	0.000000
224.164505	0.000000
224.257156	0.000000
224.349792	0.000000
224.442444	0.000000
224.535095	0.000000
224.627747	0.000000
224.720398	0.000000
224.813034	0.000000
224.905685	0.000000
224.998337	153.320000
225.090988	153.080000
225.183640	153.000000
225.276291	152.760000
225.368942	153.100000
225.461594	153.820000
225.554245	153.960000
225.646912	153.980000
225.739578	154.500000
225.832230	154.740000
225.924896	153.980000
226.017548	154.440000
226.110199	155.360000
226.202866	154.800000
226.295532	154.920000
226.388184	154.860000
226.480850	154.060000
226.573517	153.240000
226.666168	153.560000
226.758835	153.660000
226.851501	154.400000
226.944183	154.640000
227.036850	154.220000
227.129517	153.980000
227.222183	153.960000
227.314850	153.460000
227.407516	153.720000
227.500198	154.900000
227.592865	154.760000
227.685532	154.400000
227.778214	154.520000
227.870880	154.640000
227.963562	154.680000
228.056229	154.900000
228.148926	154.980000
228.241592	155.660000
228.334274	155.480000
228.426956	155.040000
228.519638	154.940000
228.612305	154.380000
228.704987	153.940000
228.797668	153.840000
228.890350	153.380000
228.983032	152.980000
229.075714	154.080000
229.168396	153.980000
229.261108	153.780000
229.353790	154.140000
229.446472	154.680000
229.539169	154.260000
229.631851	153.760000
229.724533	153.920000
229.817230	153.940000
229.909912	154.640000
230.002609	154.560000
230.095306	154.680000
230.187988	154.820000
230.280685	154.500000
230.373383	153.340000
230.466095	153.140000
230.558792	153.380000
230.651474	153.040000
230.744171	153.460000
230.836868	153.260000
230.929581	153.720000
231.022278	153.900000
231.114975	154.260000
231.207672	153.620000
231.300369	154.240000
231.393082	153.920000
231.485779	153.700000
231.578506	153.760000
231.671204	154.200000
231.763916	154.400000
231.856613	154.380000
231.949326	154.740000
232.042023	154.520000
232.134735	154.520000
232.227448	153.880000
232.320160	154.320000
232.412872	153.880000
232.505585	154.780000
232.598297	155.080000
232.691010	155.380000
232.783722	154.960000
232.876450	155.740000
232.969162	154.800000
233.061874	154.320000
233.154587	153.760000
233.247314	153.960000
233.340027	153.160000
233.432739	153.880000
233.525467	153.900000
233.618179	154.360000
233.710907	153.940000
233.803635	154.440000
233.896347	153.760000
233.989090	154.280000
234.081818	154.260000
234.174545	154.640000
234.267258	154.200000
234.359985	154.560000
234.452713	154.280000
234.545441	154.340000
234.638168	154.240000
234.730896	154.720000
234.823639	154.360000
234.916367	154.640000
235.009094	154.700000
235.101822	154.400000
235.194580	154.040000
235.287308	154.360000
235.380051	153.760000
235.472778	153.840000
235.565521	154.280000
235.658249	153.860000
235.750992	153.820000
235.843719	153.880000
235.936462	153.900000
236.029205	153.260000
236.121948	153.320000
236.214691	153.700000
236.307449	154.400000
236.400192	154.000000
236.492935	154.160000
236.585678	154.540000
236.678421	154.240000
236.771164	153.540000
236.863907	154.160000
236.956665	154.240000
237.049408	155.880000
237.142151	155.160000
237.234909	156.160000
237.327652	156.000000
237.420410	156.020000
237.513153	154.720000
237.605927	155.000000
237.698669	154.140000
237.791428	153.540000
237.884186	153.860000
237.976944	153.360000
238.069702	153.500000
238.162445	153.060000
238.255203	153.460000
238.347961	153.880000
238.440720	153.900000
238.533478	153.940000
238.626266	154.020000
238.719025	154.000000
238.811783	153.420000
238.904541	153.240000
238.997314	153.020000
239.090073	152.940000
239.182831	153.320000
239.275604	154.120000
239.368362	154.140000
239.461136	154.300000
239.553909	154.420000
239.646667	154.160000
239.739441	153.280000
239.832214	153.520000
239.925003	153.620000
240.017761	153.960000
240.110535	154.360000
240.203308	154.320000
240.296082	154.380000
240.388855	154.140000
240.481628	154.120000
240.574417	154.080000
240.667191	154.180000
240.759964	153.840000
240.852737	154.000000
240.945526	153.900000
241.038315	153.620000
241.131088	153.660000
241.223877	154.120000
241.316650	153.520000
241.409439	153.740000
241.502228	153.520000
241.595001	154.080000
241.687790	153.780000
241.780579	154.180000
241.873367	154.240000
241.966141	154.240000
242.058929	153.380000
242.151718	153.700000
242.244507	154.100000
242.337311	153.320000
242.430099	153.880000
242.522903	154.080000
242.615692	153.660000
242.708481	153.680000
242.801270	154.480000
242.894073	154.200000
242.986862	154.340000
243.079651	154.900000
243.172455	154.440000
243.265244	154.480000
243.358063	153.920000
243.450867	154.460000
243.543655	154.300000
243.636459	154.380000
243.729263	154.580000
243.822067	155.120000
243.914856	155.120000
244.007660	154.860000
244.100464	155.060000
244.193268	154.400000
244.286072	154.160000
244.378876	153.420000
244.471680	153.260000
244.564499	153.520000
244.657318	154.280000
244.750122	154.380000
244.842926	154.140000
244.935745	154.680000
245.028549	154.100000
245.121368	153.760000
245.214172	153.660000
245.306992	154.380000
245.399796	154.040000
245.492615	154.460000
245.585434	154.120000
245.678253	154.180000
245.771072	153.940000
245.863892	154.380000
245.956711	154.220000
246.049530	154.140000
246.142349	153.860000
246.235168	154.040000
246.327988	154.260000
246.420807	154.180000
246.513626	154.200000
246.606445	154.180000
246.699280	153.980000
246.792099	153.620000
246.884918	153.240000
246.977753	152.940000
247.070587	153.420000
247.163422	153.340000
247.256241	152.980000
247.349075	153.520000
247.441895	153.880000
247.534729	153.420000
247.627563	153.500000
247.720383	154.160000
247.813217	154.220000
247.906052	153.880000
247.998886	154.260000
248.091736	154.300000
248.184570	153.740000
248.277405	153.680000
248.370239	154.940000
248.463074	156.060000
248.555908	156.240000
248.648743	156.400000
248.741592	156.520000
248.834427	155.780000
248.927261	154.420000
249.020111	154.700000
249.112946	155.240000
249.205795	154.620000
249.298630	154.660000
249.391495	155.040000
249.484344	154.500000
249.577179	154.220000
249.670029	154.660000
249.762878	155.100000
249.855728	154.880000
249.948563	155.140000
250.041412	154.320000
250.134262	154.680000
250.227112	154.380000
250.319962	154.220000
250.412827	154.160000
250.505692	154.280000
250.598541	154.300000
250.691391	153.940000
250.784241	154.220000
250.877106	154.220000
250.969955	154.080000
251.062805	154.260000
251.155670	154.880000
251.248520	154.500000
251.341385	154.740000
251.434235	155.080000
251.527100	154.360000
251.619965	153.480000
251.712814	154.420000
251.805695	154.340000
251.898560	154.580000
251.991425	155.040000
252.084290	155.600000
252.177155	154.980000
252.270020	154.620000
252.362885	154.220000
252.455750	154.080000
252.548615	153.940000
252.641479	153.720000
252.734360	153.620000
252.827240	153.840000
252.920105	154.100000
253.012970	153.680000
253.105850	153.300000
253.198715	153.140000
253.291595	152.900000
253.384460	152.220000
253.477341	152.480000
253.570221	153.160000
253.663086	153.100000
253.755966	154.060000
253.848846	154.280000
253.941727	154.400000
254.034592	153.980000
254.127472	153.600000
254.220367	153.160000
254.313248	153.320000
254.406128	153.080000
254.499008	153.500000
254.591904	154.720000
254.684784	155.040000
254.777664	154.940000
254.870544	155.080000
254.963440	154.920000
255.056335	154.380000
255.149216	153.840000
255.242111	154.080000
255.334991	154.240000
255.427887	153.960000
255.520767	154.100000
255.613663	154.620000
255.706558	154.200000
255.799438	153.940000
255.892334	153.860000
255.985229	153.780000
256.078125	153.500000
256.171021	153.560000
256.263916	154.220000
256.356812	154.720000
256.449707	154.820000
256.542603	154.280000
256.635498	154.920000
256.728394	154.380000
256.821289	154.100000
256.914215	154.300000
257.007080	154.740000
257.100006	154.520000
257.192932	154.940000
257.285828	155.060000
257.378723	154.520000
257.471619	154.500000
257.564545	153.940000
257.657440	153.740000
257.750336	154.520000
257.843262	154.420000
257.936157	155.500000
258.029053	155.860000
258.121979	155.860000
258.214874	155.120000
258.307800	155.180000
258.400696	153.780000
258.493622	153.780000
258.586517	153.060000
258.679443	153.440000
258.772339	153.080000
258.865265	153.160000
258.958160	152.880000
259.051086	154.220000
259.144012	154.080000
259.236938	155.180000
259.329834	155.360000
259.422791	155.300000
259.515717	154.480000
259.608612	153.840000
259.701538	153.780000
259.794464	153.700000
259.887390	153.780000
259.980316	153.620000
260.073212	153.820000
260.166138	152.620000
260.259064	153.080000
260.351990	153.500000
260.444916	153.260000
260.537842	153.400000
260.630768	154.280000
260.723694	154.000000
260.816620	153.940000
260.909546	154.280000
261.002472	153.940000
261.095398	153.440000
261.188354	153.240000
261.281281	152.720000
261.374207	153.000000
261.467133	153.820000
261.560089	154.160000
261.653015	154.080000
261.745972	154.860000
261.838867	155.080000
261.931824	155.380000
262.024780	155.080000
262.117706	155.200000
262.210663	155.180000
262.303589	154.900000
262.396515	154.500000
262.489471	155.540000
262.582397	155.380000
262.675354	154.860000
262.768280	155.080000
262.861237	154.820000
262.954163	154.460000
263.047119	154.860000
263.140045	154.620000
263.233002	154.480000
263.325958	154.540000
263.418884	153.860000
263.511841	153.520000
263.604797	153.860000
263.697723	153.660000
263.790680	153.520000
263.883636	154.100000
263.976593	154.060000
264.069550	154.180000
264.162476	154.000000
264.255463	154.120000
264.348419	153.940000
264.441376	154.140000
264.534332	153.380000
264.627289	153.660000
264.720245	154.200000
264.813202	153.640000
264.906158	154.060000
264.999115	154.940000
265.092072	154.760000
265.185028	154.680000
265.277985	155.200000
265.370941	154.680000
265.463898	154.080000
265.556854	154.000000
265.649811	153.060000
265.742798	152.960000
265.835754	153.340000
265.928711	154.100000
266.021667	154.120000
266.114655	154.500000
266.207611	154.780000
266.300568	154.060000
266.393585	153.480000
266.486511	153.800000
266.579498	153.240000
266.672485	153.000000
266.765442	152.840000
266.858429	153.080000
266.951385	152.780000
267.044342	153.200000
267.137329	153.440000
267.230316	154.020000
267.323273	153.720000
267.416260	154.240000
267.509216	154.220000
267.602203	154.300000
267.695160	154.740000
267.788147	154.780000
267.881134	153.940000
267.974091	154.060000
268.067078	153.480000
268.160065	153.100000
268.253052	153.180000
268.346008	153.560000
268.438995	153.580000
268.531982	154.020000
268.624969	153.700000
268.717987	153.920000
268.810944	153.860000
268.903961	153.900000
268.996948	153.340000
269.089905	154.060000
269.182892	153.960000
269.275879	154.320000
269.368866	153.980000
269.461853	154.360000
269.554871	154.140000
269.647858	154.220000
269.740845	154.180000
269.833832	154.480000
269.926819	154.380000
270.019806	154.360000
270.112793	153.940000
270.205811	153.980000
270.298798	153.900000
270.391785	154.040000
270.484772	153.620000
270.577789	153.800000
270.670776	153.400000
270.763763	153.280000
270.856750	153.540000
270.949768	153.380000
271.042786	153.540000
271.135773	153.680000
271.228790	154.020000
271.321808	153.540000
271.414795	153.240000
271.507782	152.760000
271.600800	152.580000
271.693817	152.660000
271.786804	153.160000
271.879822	153.840000
271.972809	154.100000
272.065826	154.460000
272.158844	153.880000
272.251831	154.200000
272.344849	154.320000
272.437866	154.220000
272.530853	154.140000
272.623871	154.420000
272.716888	153.100000
272.809906	153.480000
272.902893	153.560000
272.995911	152.920000
273.088928	152.940000
273.181946	153.600000
273.274963	152.860000
273.367981	152.960000
273.460999	153.360000
273.554047	154.100000
273.647003	154.420000
273.740051	154.280000
273.833069	154.580000
273.926086	154.980000
274.019135	154.040000
274.112152	153.840000
274.205170	154.380000
274.298187	154.400000
274.391205	153.800000
274.484222	154.180000
274.577240	154.180000
274.670258	153.920000
274.763306	153.720000
274.856323	154.480000
274.949341	154.260000
275.042358	154.720000
275.135406	154.900000
275.228424	154.920000
275.321442	154.560000
275.414490	154.600000
275.507507	154.800000
275.600525	155.080000
275.693573	154.680000
275.786591	154.260000
275.879669	154.500000
275.972656	153.840000
276.065735	153.660000
276.158752	154.740000
276.251801	155.600000
276.344818	155.720000
276.437866	155.900000
276.530884	155.440000
276.623932	154.140000
276.716980	154.120000
276.809998	153.960000
276.903046	153.500000
276.996094	154.640000
277.089111	155.460000
277.182159	155.720000
277.275208	155.460000
277.368256	155.920000
277.461304	154.920000
277.554321	154.140000
277.647369	153.740000
277.740417	153.780000
277.833466	153.700000
277.926514	153.480000
278.019562	154.540000
278.112610	154.260000
278.205688	154.300000
278.298706	154.340000
278.391785	154.700000
278.484833	153.840000
278.577881	153.540000
278.670929	153.800000
278.763977	153.620000
278.857025	153.940000
278.950073	154.360000
279.043121	154.440000
279.136169	154.480000
279.229248	154.340000
279.322296	154.060000
279.415344	153.680000
279.508392	153.720000
279.601440	153.340000
279.694519	153.560000
279.787567	153.420000
279.880615	153.240000
279.973694	153.280000
280.066742	153.640000
280.159790	153.720000
280.252869	153.520000
280.345917	154.060000
280.438995	154.060000
280.532074	153.920000
280.625122	154.000000
280.718201	155.220000
280.811279	155.100000
280.904327	155.180000
280.997406	155.440000
281.090454	155.560000
281.183533	154.520000
281.276581	154.740000
281.369659	154.640000
281.462738	154.640000
281.555786	154.680000
281.648865	155.020000
281.741943	154.660000
281.835022	155.020000
281.928070	154.720000
282.021149	154.580000
282.114227	154.120000
282.207306	153.960000
282.300385	154.220000
282.393433	154.280000
282.486511	154.200000
282.579590	154.800000
282.672668	155.480000
282.765747	154.680000
282.858856	154.500000
282.951904	154.660000
283.045013	154.620000
283.138062	154.760000
283.231171	155.340000
283.324249	156.020000
283.417328	155.860000
283.510406	155.500000
283.603485	155.000000
283.696564	154.640000
283.789642	154.540000
283.882751	154.120000
283.975830	154.700000
284.068909	154.480000
284.161987	155.120000
284.255066	154.320000
284.348175	154.740000
284.441254	154.420000
284.534332	154.980000
284.627441	154.400000
284.720520	154.380000
284.813599	154.320000
284.906708	154.440000
284.999786	153.780000
285.092896	153.720000
285.185974	154.660000
285.279053	154.160000
285.372192	154.360000
285.465240	155.260000
285.558380	154.920000
285.651459	154.640000
285.744568	155.700000
285.837677	155.120000
285.930756	154.560000
286.023865	155.040000
286.116943	154.380000
286.210052	154.040000
286.303162	153.660000
286.396240	153.620000
286.489349	153.480000
286.582458	154.260000
286.675568	154.040000
286.768646	154.640000
286.861755	155.040000
286.954865	155.740000
287.047974	154.740000
287.141083	154.640000
287.234161	154.380000
287.327271	153.980000
287.420380	154.160000
287.513519	154.400000
287.606598	154.620000
287.699738	155.120000
287.792816	155.140000
287.885956	154.740000
287.979034	155.080000
288.072174	154.900000
288.165283	154.680000
288.258392	154.960000
288.351501	154.260000
288.444611	154.540000
288.537720	154.940000
288.630859	154.600000
288.723969	154.780000
288.817078	155.420000
288.910187	155.000000
289.003296	154.400000
289.096436	154.360000
289.189545	153.740000
289.282654	153.280000
289.375763	153.740000
289.468903	154.180000
289.562012	154.460000
289.655121	154.760000
289.748260	155.020000
289.841400	155.460000
289.934509	155.180000
290.027649	155.360000
290.120728	155.260000
290.213898	155.340000
290.306976	154.260000
290.400146	154.400000
290.493256	153.760000
290.586395	153.780000
290.679535	153.800000
290.772644	153.900000
290.865784	153.460000
290.958893	153.840000
291.052032	153.600000
291.145172	153.600000
291.238281	153.460000
291.331421	153.580000
291.424561	153.820000
291.517670	153.960000
291.610809	153.880000
291.703949	154.060000
291.797089	154.400000
291.890228	154.060000
291.983337	153.940000
292.076477	153.920000
292.169617	154.240000
292.262756	154.280000
292.355927	154.220000
292.449036	154.260000
292.542206	154.040000
292.635315	154.040000
292.728485	154.260000
292.821625	153.940000
292.914764	155.260000
293.007904	155.620000
293.101044	155.620000
293.194183	155.360000
293.287323	155.660000
293.380463	154.660000
293.473602	154.460000
293.566742	154.460000
293.659882	154.700000
293.753021	155.040000
293.846191	154.880000
293.939331	154.460000
294.032471	154.420000
294.125610	154.100000
294.218781	154.600000
294.311920	154.860000
294.405060	155.000000
294.498230	154.720000
294.591370	154.760000
294.684540	153.620000
294.777679	152.820000
294.870850	153.260000
294.963959	153.280000
295.057159	153.380000
295.150299	154.040000
295.243469	153.940000
295.336609	153.620000
295.429779	153.860000
295.522919	153.860000
295.616089	153.540000
295.709229	154.940000
295.802399	154.860000
295.895569	154.380000
295.988708	154.080000
296.081879	154.500000
296.175018	153.780000
296.268188	154.040000
296.361359	154.900000
296.454529	155.500000
296.547668	155.060000
296.640839	155.060000
296.734009	154.860000
296.827179	154.700000
296.920319	154.540000
297.013519	154.260000
297.106659	154.600000
297.199860	154.600000
297.292999	154.500000
297.386200	154.160000
297.479309	154.220000
297.572510	153.720000
297.665680	153.520000
297.758850	153.340000
297.852020	153.200000
297.945190	153.260000
298.038361	152.960000
298.131531	154.100000
298.224701	154.080000
298.317871	153.940000
298.411072	153.300000
298.504242	153.140000
298.597412	152.020000
298.690582	152.200000
298.783752	152.260000
298.876923	153.200000
298.970093	153.420000
299.063293	154.100000
299.156464	154.020000
299.249634	154.580000
299.342834	154.740000
299.436005	155.500000
299.529205	155.100000
299.622345	155.120000
299.715576	154.480000
299.808716	154.300000
299.901917	153.780000
299.995117	154.080000
300.088287	154.240000
300.181488	154.560000
300.274658	154.340000
300.367828	154.300000
300.461029	154.340000
300.554199	154.720000
300.647400	154.660000
300.740601	155.220000
300.833771	155.260000
300.926971	155.300000
301.020142	154.620000
301.113342	154.520000
301.206512	154.440000
301.299713	155.000000
301.392914	154.960000
301.486084	155.420000
301.579285	155.520000
301.672516	155.580000
301.765686	154.960000
301.858887	154.700000
301.952057	154.220000
302.045288	154.440000
302.138458	154.220000
302.231659	153.960000
302.324860	153.960000
302.418060	154.160000
302.511261	153.760000
302.604462	153.940000
302.697662	154.020000
302.790863	153.620000
302.884064	153.100000
302.977264	153.280000
303.070465	153.080000
303.163666	154.220000
303.256866	155.100000
303.350067	155.140000
303.443268	155.100000
303.536469	155.380000
303.629669	154.480000
303.722870	154.460000
303.816071	154.460000
303.909271	154.540000
304.002472	153.700000
304.095673	153.640000
304.188934	152.720000
304.282104	153.660000
304.375336	153.660000
304.468506	153.840000
304.561768	153.720000
304.654968	154.480000
304.748169	153.840000
304.841370	153.820000
304.934601	154.360000
305.027802	154.100000
305.121002	153.720000
305.214233	153.900000
305.307434	153.820000
305.400665	154.540000
305.493866	154.500000
305.587097	154.900000
305.680298	154.680000
305.773499	155.340000
305.866730	154.480000
305.959930	155.420000
306.053162	155.600000
306.146393	155.620000
306.239594	154.780000
306.332825	154.740000
306.426025	154.700000
306.519287	154.200000
306.612488	154.140000
306.705719	154.160000
306.798920	154.220000
306.892181	153.800000
306.985352	153.140000
307.078613	152.760000
307.171844	153.080000
307.265045	152.580000
307.358276	152.180000
307.451508	152.780000
307.544739	153.720000
307.637970	153.500000
307.731201	153.720000
307.824402	154.660000
307.917633	155.120000
308.010864	155.480000
308.104095	155.760000
308.197327	155.720000
308.290558	155.460000
308.383789	155.000000
308.477020	154.140000
308.570251	153.360000
308.663483	153.220000
308.756714	152.940000
308.849976	153.080000
308.943176	153.420000
309.036438	153.540000
309.129639	153.520000
309.222900	153.460000
309.316101	153.160000
309.409393	152.620000
309.502625	152.700000
309.595856	152.980000
309.689087	153.260000
309.782318	153.160000
309.875580	153.360000
309.968811	153.500000
310.062042	153.360000
310.155273	153.040000
310.248535	153.720000
310.341766	153.820000
310.434998	153.740000
310.528259	153.780000
310.621490	154.080000
310.714722	153.500000
310.807983	153.280000
310.901215	153.400000
310.994476	153.340000
311.087708	152.900000
311.181000	153.160000
311.274200	152.960000
311.367462	153.100000
311.460693	153.080000
311.553986	154.100000
311.647186	154.140000
311.740479	155.140000
311.833710	154.740000
311.926971	154.940000
312.020203	154.020000
312.113464	153.940000
312.206726	152.940000
312.299957	153.380000
312.393219	153.680000
312.486481	154.160000
312.579712	154.000000
312.672974	154.340000
312.766235	154.060000
312.859497	153.960000
312.952759	153.660000
313.045990	154.500000
313.139252	153.820000
313.232513	154.460000
313.325775	154.280000
313.419037	154.240000
313.512299	153.100000
313.605530	154.100000
313.698822	153.760000
313.792053	154.060000
313.885345	153.900000
313.978577	154.300000
314.071869	153.640000
314.165131	153.980000
314.258392	153.820000
314.351654	153.900000
314.444916	153.480000
314.538177	154.240000
314.631439	154.260000
314.724701	154.060000
314.817993	153.560000
314.911255	153.920000
315.004517	153.260000
315.097778	152.820000
315.191040	153.300000
315.284302	154.020000
315.377594	153.900000
315.470856	154.140000
315.564117	153.920000
315.657379	153.460000
315.750671	153.160000
315.843933	153.680000
315.937195	153.280000
316.030518	153.340000
316.123749	153.420000
316.217041	154.260000
316.310303	154.020000
316.403595	154.320000
316.496857	154.400000
316.590149	154.440000
316.683411	153.620000
316.776703	153.220000
316.869965	153.220000
316.963257	153.140000
317.056519	152.620000
317.149811	152.500000
317.243073	152.820000
317.336365	152.780000
317.429626	153.080000
317.522919	153.860000
317.616180	154.300000
317.709473	154.040000
317.802765	154.060000
317.896027	153.880000
317.989319	153.920000
318.082611	153.160000
318.175873	153.100000
318.269165	153.120000
318.362488	153.160000
318.455750	152.660000
318.549042	153.520000
318.642303	154.080000
318.735626	153.640000
318.828888	153.760000
318.922211	153.220000
319.015472	153.560000
319.108765	152.800000
319.202057	153.060000
319.295349	153.080000
319.388641	153.660000
319.481934	153.100000
319.575226	153.400000
319.668518	153.480000
319.761810	153.760000
319.855103	153.580000
319.948395	153.780000
320.041687	153.960000
320.134979	154.000000
320.228271	153.580000
320.321564	153.580000
320.414856	153.680000
320.508148	153.280000
320.601440	153.480000
320.694763	153.380000
320.788025	154.260000
320.881348	154.000000
320.974640	154.140000
321.067963	153.260000
321.161224	153.320000
321.254547	152.360000
321.347839	153.000000
321.441162	152.560000
321.534454	153.400000
321.627747	153.240000
321.721069	154.380000
321.814362	154.320000
321.907654	154.840000
322.000946	154.560000
322.094269	155.040000
322.187561	154.140000
322.280884	154.240000
322.374176	154.260000
322.467468	154.840000
322.560791	154.900000
322.654083	155.300000
322.747406	155.020000
322.840698	155.400000
322.934021	155.540000
323.027344	155.440000
323.120636	155.540000
323.213959	155.260000
323.307251	154.600000
323.400574	153.900000
323.493866	153.320000
323.587219	153.120000
323.680511	153.380000
323.773834	153.720000
323.867157	154.060000
323.960449	154.580000
324.053772	154.420000
324.147095	154.220000
324.240387	154.660000
324.333710	154.660000
324.427032	154.580000
324.520355	154.380000
324.613647	154.120000
324.706970	153.660000
324.800293	153.500000
324.893616	153.720000
324.986938	154.300000
325.080231	154.420000
325.173553	154.740000
325.266876	155.060000
325.360199	155.000000
325.453522	154.100000
325.546875	153.660000
325.640167	153.800000
325.733521	154.040000
325.826813	154.080000
325.920166	154.300000
326.013489	154.680000
326.106812	153.660000
326.200134	153.220000
326.293457	152.640000
326.386780	152.700000
326.480103	152.500000
326.573425	152.880000
326.666748	152.680000
326.760071	153.260000
326.853424	153.520000
326.946747	153.500000
327.040070	154.340000
327.133392	154.020000
327.226715	153.280000
327.320068	152.880000
327.413391	153.600000
327.506714	152.320000
327.600037	152.540000
327.693390	153.020000
327.786713	152.880000
327.880066	152.460000
327.973358	153.320000
328.066742	154.120000
328.160034	154.320000
328.253418	154.840000
328.346710	154.660000
328.440063	154.160000
328.533417	153.320000
328.626740	153.480000
328.720093	153.100000
328.813416	153.240000
328.906769	153.340000
329.000092	153.920000
329.093445	154.000000
329.186768	154.260000
329.280121	154.620000
329.373444	154.920000
329.466797	154.680000
329.560120	154.300000
329.653473	154.520000
329.746796	153.880000
329.840149	153.800000
329.933502	153.700000
330.026825	153.840000
330.120178	153.300000
330.213562	153.540000
330.306854	153.340000
330.400238	153.400000
330.493561	153.160000
330.586945	154.040000
330.680237	154.340000
330.773621	154.460000
330.866974	154.660000
330.960327	155.040000
331.053680	154.780000
331.147003	154.620000
331.240356	155.100000
331.333710	154.980000
331.427063	154.440000
331.520416	154.220000
331.613770	153.960000
331.707123	153.920000
331.800476	153.920000
331.893829	154.840000
331.987152	154.840000
332.080505	155.020000
332.173859	154.540000
332.267212	153.960000
332.360565	153.300000
332.453918	152.980000
332.547333	152.640000
332.640656	152.720000
332.734039	153.020000
332.827362	153.220000
332.920746	153.820000
333.014069	154.380000
333.107452	154.720000
333.200806	155.480000
333.294159	155.400000
333.387543	154.960000
333.480896	154.500000
333.574249	153.980000
333.667603	153.040000
333.760956	153.200000
333.854340	153.140000
333.947693	153.380000
334.041046	153.700000
334.134430	154.180000
334.227783	153.680000
334.321136	153.720000
334.414520	153.340000
334.507874	153.320000
334.601227	153.320000
334.694611	153.500000
334.787964	153.640000
334.881348	153.980000
334.974701	154.220000
335.068085	153.760000
335.161438	154.100000
335.254822	153.940000
335.348175	154.000000
335.441559	153.400000
335.534943	154.240000
335.628296	153.940000
335.721680	154.380000
335.815033	154.500000
335.908417	155.000000
336.001770	154.720000
336.095154	154.720000
336.188538	153.800000
336.281891	153.200000
336.375275	152.700000
336.468658	152.500000
336.562012	152.300000
336.655396	153.280000
336.748779	153.740000
336.842133	153.880000
336.935516	154.100000
337.028900	153.940000
337.122284	153.460000
337.215637	153.740000
337.309021	153.780000
337.402435	153.400000
337.495789	153.560000
337.589203	153.580000
337.682526	153.060000
337.775940	153.440000
337.869324	153.740000
337.962708	153.620000
338.056091	154.100000
338.149475	153.860000
338.242859	153.660000
338.336243	153.500000
338.429626	153.680000
338.523010	153.320000
338.616394	153.280000
338.709778	153.300000
338.803162	153.400000
338.896545	153.600000
338.989929	152.940000
339.083313	153.720000
339.176697	153.340000
339.270081	152.880000
339.363464	153.140000
339.456848	153.920000
339.550232	153.320000
339.643616	153.420000
339.737030	153.740000
339.830383	153.280000
339.923828	153.160000
340.017181	153.180000
340.110596	153.280000
340.203949	153.180000
340.297363	152.960000
340.390778	153.080000
340.484161	153.060000
340.577545	153.300000
340.670959	153.720000
340.764343	153.740000
340.857727	153.700000
340.951111	153.480000
341.044525	153.720000
341.137909	153.300000
341.231293	153.500000
341.324707	153.200000
341.418091	154.140000
341.511505	153.840000
341.604889	153.940000
341.698303	154.020000
341.791687	154.040000
341.885071	153.280000
341.978485	153.020000
342.071899	153.260000
342.165283	153.640000
342.258698	154.100000
342.352081	154.620000
342.445496	155.080000
342.538879	155.060000
342.632324	154.440000
342.725708	154.280000
342.819122	153.680000
342.912506	153.540000
343.005920	153.380000
343.099335	154.500000
343.192719	154.220000
343.286133	154.560000
343.379547	154.420000
343.472931	154.340000
343.566345	153.180000
343.659760	153.600000
343.753143	153.320000
343.846558	153.200000
343.939972	153.340000
344.033386	154.240000
344.126770	153.720000
344.220184	153.980000
344.313599	154.440000
344.407043	154.380000
344.500427	153.880000
344.593872	154.640000
344.687225	154.560000
344.780670	153.920000
344.874054	153.860000
344.967499	154.100000
345.060913	153.780000
345.154327	153.540000
345.247742	153.460000
345.341156	153.240000
345.434570	152.560000
345.527985	152.440000
345.621399	152.840000
345.714813	152.780000
345.808228	153.100000
345.901642	153.420000
345.995056	152.820000
346.088470	152.660000
346.181885	152.980000
346.275299	152.600000
346.368713	152.540000
346.462128	152.680000
346.555573	152.600000
346.648987	152.640000
346.742401	152.880000
346.835815	153.560000
346.929260	153.860000
347.022644	153.860000
347.116119	153.840000
347.209503	153.960000
347.302948	154.300000
347.396362	154.860000
347.489807	155.120000
347.583221	156.020000
347.676636	155.720000
347.770050	154.460000
347.863495	153.660000
347.956909	153.120000
348.050323	152.300000
348.143768	152.400000
348.237183	152.380000
348.330597	153.140000
348.424042	153.640000
348.517456	154.040000
348.610901	154.320000
348.704315	154.540000
348.797760	153.940000
348.891174	153.560000
348.984619	152.860000
349.078033	153.280000
349.171448	154.160000
349.264923	154.040000
349.358337	154.080000
349.451782	154.360000
349.545197	153.440000
349.638641	152.440000
349.732086	152.200000
349.825500	152.640000
349.918945	152.240000
350.012390	153.200000
350.105804	154.040000
350.199249	154.400000
350.292664	154.700000
350.386108	155.140000
350.479553	154.980000
350.572968	154.360000
350.666412	154.600000
350.759857	154.100000
350.853302	154.720000
350.946716	154.120000
351.040161	154.260000
351.133606	154.420000
351.227081	154.080000
351.320465	154.520000
351.413940	154.880000
351.507355	154.980000
351.600830	154.920000
351.694244	155.140000
351.787720	154.140000
351.881104	153.960000
351.974579	153.700000
352.067993	154.380000
352.161469	154.420000
352.254883	153.960000
352.348358	153.820000
352.441803	154.000000
352.535248	153.060000
352.628693	153.560000
352.722137	153.800000
352.815582	154.200000
352.909027	154.280000
353.002472	154.460000
353.095917	154.180000
353.189362	154.580000
353.282806	154.300000
353.376251	153.980000
353.469696	153.400000
353.563141	153.820000
353.656586	153.380000
353.750061	152.760000
353.843475	152.800000
353.936981	153.800000
354.030396	153.380000
354.123871	153.480000
354.217285	154.820000
354.310760	155.080000
354.404175	154.700000
354.497681	154.340000
354.591095	154.480000
354.684570	153.440000
354.777985	153.140000
354.871490	152.580000
354.964935	153.100000
355.058380	153.340000
355.151855	152.900000
355.245300	153.380000
355.338745	154.120000
355.432220	154.220000
355.525665	153.360000
355.619110	154.320000
355.712585	153.920000
355.806030	153.520000
355.899475	153.000000
355.992950	153.920000
356.086426	154.360000
356.179871	154.340000
356.273346	154.520000
356.366791	154.720000
356.460266	154.620000
356.553711	154.000000
356.647186	154.320000
356.740631	154.040000
356.834106	153.760000
356.927551	153.820000
357.021027	153.580000
357.114471	153.460000
357.207947	153.680000
357.301422	154.280000
357.394867	154.300000
357.488342	154.560000
357.581818	154.700000
357.675262	155.260000
357.768738	154.780000
357.862213	153.940000
357.955658	154.460000
358.049133	154.260000
358.142609	154.100000
358.236053	153.760000
358.329529	154.260000
358.423035	154.240000
358.516449	153.600000
358.609955	153.760000
358.703400	154.840000
358.796906	154.900000
358.890350	154.040000
358.983826	154.940000
359.077271	153.920000
359.170776	153.420000
359.264221	153.380000
359.357727	153.840000
359.451172	153.680000
359.544647	154.340000
359.638123	154.020000
359.731598	154.400000
359.825073	154.480000
359.918549	154.320000
360.012024	154.120000
360.105499	153.980000
360.198975	153.780000
360.292450	153.740000
360.385925	153.700000
360.479401	153.400000
360.572876	153.800000
360.666351	153.940000
360.759857	153.480000
360.853302	153.600000
360.946808	153.380000
361.040253	153.340000
361.133759	152.860000
361.227203	153.440000
361.320709	152.880000
361.414154	153.340000
361.507660	153.640000
361.601105	154.320000
361.694641	154.680000
361.788086	154.920000
361.881592	155.600000
361.975067	155.060000
362.068542	155.120000
362.162018	154.600000
362.255524	154.380000
362.348999	153.860000
362.442474	154.200000
362.535950	153.500000
362.629456	153.440000
362.722931	153.680000
362.816406	154.100000
362.909882	154.560000
363.003387	154.540000
363.096863	155.100000
363.190338	155.020000
363.283875	154.540000
363.377319	154.000000
363.470825	154.500000
363.564301	153.540000
363.657806	153.760000
363.751282	153.560000
363.844788	154.440000
363.938232	153.780000
364.031769	154.840000
364.125214	154.980000
364.218750	155.540000
364.312225	154.220000
364.405731	154.480000
364.499207	153.760000
364.592712	153.580000
364.686188	153.300000
364.779694	153.820000
364.873169	153.880000
364.966675	153.880000
365.060150	153.580000
365.153656	153.880000
365.247131	153.960000
365.340637	154.160000
365.434143	154.700000
365.527618	154.820000
365.621155	153.980000
365.714600	153.740000
365.808136	153.840000
365.901611	152.740000
365.995117	152.540000
366.088593	152.860000
366.182129	152.660000
366.275604	153.060000
366.369110	153.520000
366.462585	153.940000
366.556122	154.860000
366.649567	155.240000
366.743103	154.580000
366.836609	154.340000
366.930115	154.840000
367.023590	154.320000
367.117096	154.020000
367.210602	153.980000
367.304108	154.640000
367.397614	154.720000
367.491119	154.940000
367.584595	155.280000
367.678101	155.740000
367.771606	155.300000
367.865112	154.620000
367.958649	153.720000
368.052124	153.440000
368.145660	152.920000
368.239136	153.880000
368.332672	154.040000
368.426147	154.700000
368.519684	154.600000
368.613159	154.920000
368.706696	154.100000
368.800171	154.100000
368.893707	153.760000
368.987183	154.040000
369.080719	154.080000
369.174225	154.140000
369.267731	154.280000
369.361237	154.480000
369.454742	154.460000
369.548248	154.760000
369.641754	154.520000
369.735260	154.240000
369.828766	153.220000
369.922272	153.540000
370.015808	153.140000
370.109314	152.740000
370.202820	152.780000
370.296356	154.260000
370.389832	153.860000
370.483368	153.700000
370.576874	153.680000
370.670410	153.940000
370.763885	152.840000
370.857422	152.860000
370.950928	152.320000
371.044464	153.600000
371.137939	153.400000
371.231476	154.120000
371.324982	154.920000
371.418518	155.720000
371.512024	155.440000
371.605560	155.400000
371.699066	155.160000
371.792572	154.360000
371.886108	154.320000
371.979614	153.720000
372.073120	154.120000
372.166656	154.080000
372.260162	154.380000
372.353668	154.280000
372.447205	154.320000
372.540710	154.000000
372.634277	153.900000
372.727753	153.940000
372.821320	153.960000
372.914795	153.820000
373.008362	153.800000
373.101837	153.940000
373.195404	153.460000
373.288879	153.380000
373.382446	154.260000
373.475922	154.360000
373.569489	154.980000
373.662964	155.420000
373.756531	155.320000
373.850037	155.260000
373.943573	155.300000
374.037109	154.240000
374.130615	154.440000
374.224152	154.600000
374.317657	153.920000
374.411194	154.600000
374.504730	154.900000
374.598236	154.620000
374.691772	154.540000
374.785309	154.660000
374.878815	153.320000
374.972351	153.880000
375.065887	153.680000
375.159454	154.300000
375.252930	154.280000
375.346497	155.140000
375.440002	155.360000
375.533569	155.520000
375.627045	154.680000
375.720612	154.800000
375.814117	154.640000
375.907684	153.780000
376.001160	153.280000
376.094727	152.920000
376.188232	153.560000
376.281799	153.480000
376.375336	153.680000
376.468872	154.400000
376.562408	154.940000
376.655914	154.320000
376.749451	154.600000
376.842987	155.060000
376.936523	154.860000
377.030060	154.820000
377.123596	155.020000
377.217133	154.380000
377.310669	154.160000
377.404205	154.440000
377.497772	154.580000
377.591278	154.180000
377.684845	155.080000
377.778351	155.380000
377.871918	154.940000
377.965424	154.500000
378.058990	154.580000
378.152496	154.140000
378.246063	154.100000
378.339569	154.580000
378.433136	154.780000
378.526642	154.800000
378.620209	154.740000
378.713745	154.180000
378.807312	154.600000
378.900848	154.620000
378.994385	154.880000
379.087921	153.920000
379.181458	154.420000
379.274994	153.580000
379.368530	153.540000
379.462097	153.640000
379.555634	154.680000
379.649170	153.820000
379.742706	153.940000
379.836273	154.000000
379.929810	153.760000
380.023376	153.360000
380.116882	153.560000
380.210449	153.260000
380.303986	152.940000
380.397552	152.400000
380.491058	152.400000
380.584656	152.380000
380.678162	152.760000
380.771729	152.800000
380.865265	154.000000
380.958832	154.240000
381.052368	154.780000
381.145935	155.100000
381.239471	155.860000
381.333008	155.440000
381.426575	155.500000
381.520111	155.720000
381.613647	155.400000
381.707214	155.000000
381.800751	154.240000
381.894318	154.480000
381.987854	153.860000
382.081421	153.660000
382.174988	153.660000
382.268524	153.820000
382.362091	153.540000
382.455627	154.340000
382.549194	154.020000
382.642731	153.420000
382.736298	153.440000
382.829834	153.240000
382.923401	153.360000
383.016937	153.800000
383.110504	154.500000
383.204041	154.660000
383.297607	154.940000
383.391174	154.000000
383.484741	154.440000
383.578278	153.900000
383.671844	153.660000
383.765411	153.020000
383.858948	153.740000
383.952515	153.460000
384.046051	154.000000
384.139618	154.300000
384.233185	154.880000
384.326721	154.540000
384.420288	154.900000
384.513855	154.700000
384.607422	154.920000
384.700989	154.840000
384.794525	154.300000
384.888123	154.120000
384.981659	154.320000
385.075226	153.780000
385.168762	153.640000
385.262360	153.920000
385.355896	153.200000
385.449463	153.060000
385.542999	153.200000
385.636597	154.000000
385.730164	154.240000
385.823730	153.940000
385.917267	153.880000
386.010834	154.100000
386.104401	153.760000
386.197968	154.060000
386.291534	154.840000
386.385101	154.780000
386.478668	155.340000
386.572235	155.040000
386.665802	154.200000
386.759338	153.900000
386.852905	153.900000
386.946472	152.980000
387.040070	153.160000
387.133606	153.440000
387.227203	153.280000
387.320740	153.300000
387.414337	153.220000
387.507874	153.140000
387.601471	153.400000
387.695007	153.360000
387.788605	153.420000
387.882141	154.020000
387.975739	154.100000
388.069275	153.900000
388.162872	154.200000
388.256439	154.020000
388.350037	153.440000
388.443604	153.180000
388.537170	153.180000
388.630737	153.620000
388.724304	153.880000
388.817871	153.980000
388.911438	154.180000
389.005005	154.540000
389.098602	154.780000
389.192169	154.560000
389.285736	155.060000
389.379333	154.900000
389.472870	154.560000
389.566467	154.360000
389.660034	154.160000
389.753632	153.280000
389.847168	153.640000
389.940765	153.960000
390.034332	153.800000
390.127930	153.700000
390.221466	153.940000
390.315063	153.400000
390.408630	152.540000
390.502228	151.740000
390.595795	152.240000
390.689362	152.660000
390.782959	153.020000
390.876526	153.620000
390.970093	153.660000
391.063690	153.800000
391.157257	153.880000
391.250824	154.300000
391.344421	153.900000
391.437988	154.380000
391.531555	154.640000
391.625153	154.760000
391.718750	154.660000
391.812317	155.080000
391.905914	154.800000
391.999481	154.460000
392.093079	154.560000
392.186615	155.020000
392.280243	155.040000
392.373779	155.360000
392.467407	155.940000
392.560944	155.560000
392.654572	154.500000
392.748108	154.260000
392.841736	154.440000
392.935303	153.740000
393.028900	153.640000
393.122467	154.040000
393.216064	154.020000
393.309631	153.420000
393.403229	153.220000
393.496796	153.200000
393.590393	152.340000
393.683990	152.500000
393.777557	153.020000
393.871155	153.380000
393.964722	154.140000
394.058350	154.700000
394.151917	154.740000
394.245514	154.360000
394.339081	154.700000
394.432678	154.680000
394.526245	154.880000
394.619873	154.500000
394.713409	155.060000
394.807037	154.760000
394.900604	154.320000
394.994202	154.420000
395.087769	154.800000
395.181396	154.240000
395.274994	154.920000
395.368561	154.340000
395.462158	154.340000
395.555756	153.900000
395.649353	154.580000
395.742920	153.640000
395.836517	154.460000
395.930115	153.760000
396.023712	154.500000
396.117279	154.360000
396.210876	153.920000
396.304474	153.800000
396.398071	154.460000
396.491669	154.200000
396.585266	153.800000
396.678833	154.180000
396.772461	153.980000
396.866028	153.560000
396.959656	153.820000
397.053223	154.040000
397.146851	153.800000
397.240417	153.860000
397.334015	154.600000
397.427582	154.060000
397.521210	153.940000
397.614807	154.260000
397.708405	154.620000
397.802002	154.240000
397.895599	154.920000
397.989197	154.840000
398.082794	154.880000
398.176392	154.960000
398.269989	155.000000
398.363586	155.000000
398.457184	155.680000
398.550781	156.180000
398.644379	155.900000
398.737976	156.140000
398.831573	156.580000
398.925201	156.880000
399.018768	158.880000
399.112396	162.880000
399.205963	169.220000
399.299591	178.620000
399.393158	192.120000
399.486786	211.280000
399.580353	242.240000
399.673981	299.980000
399.767578	407.660000
399.861206	589.820000
399.954773	852.220000
400.048401	1154.020000
400.141998	1431.120000
400.235596	1610.180000
400.329193	1643.680000
400.422791	1513.520000
400.516418	1271.220000
400.610016	983.840000
400.703613	718.300000
400.797211	504.800000
400.890808	361.020000
400.984436	272.640000
401.078033	222.600000
401.171631	194.120000
401.265259	179.660000
401.358826	171.740000
401.452484	167.120000
401.546051	164.340000
401.639679	162.000000
401.733246	160.500000
401.826904	158.840000
401.920471	157.140000
402.014099	156.520000
402.107697	156.340000
402.201324	156.540000
402.294891	156.880000
402.388550	157.300000
402.482147	157.060000
402.575745	156.620000
402.669373	155.680000
402.762970	154.760000
402.856567	154.580000
402.950195	154.560000
403.043793	154.580000
403.137390	155.380000
403.231018	154.860000
403.324615	155.480000
403.418243	155.040000
403.511841	155.680000
403.605469	155.280000
403.699066	156.080000
403.792694	155.460000
403.886292	155.800000
403.979919	155.420000
404.073517	155.000000
404.167145	155.180000
404.260712	155.300000
404.354370	155.040000
404.447937	155.180000
404.541595	155.300000
404.635162	155.380000
404.728821	155.620000
404.822418	155.060000
404.916046	154.540000
405.009644	154.900000
405.103271	154.940000
405.196899	154.380000
405.290497	154.760000
405.384125	154.920000
405.477722	154.480000
405.571350	153.940000
405.664948	154.140000
405.758575	154.000000
405.852203	153.720000
405.945801	153.660000
406.039429	153.680000
406.133057	153.560000
406.226654	153.540000
406.320312	153.640000
406.413879	153.800000
406.507538	154.260000
406.601135	153.780000
406.694763	154.140000
406.788361	153.980000
406.882019	153.620000
406.975586	153.900000
407.069244	154.740000
407.162872	154.660000
407.256470	154.660000
407.350098	154.700000
407.443726	153.900000
407.537323	153.060000
407.630951	153.260000
407.724579	152.860000
407.818207	153.380000
407.911804	153.520000
408.005432	153.480000
408.099060	153.440000
408.192688	153.980000
408.286285	153.500000
408.379913	153.040000
408.473572	153.500000
408.567169	152.760000
408.660828	152.860000
408.754395	152.740000
408.848053	152.800000
408.941650	153.100000
409.035309	152.960000
409.128906	152.740000
409.222565	153.240000
409.316132	153.780000
409.409790	153.160000
409.503387	153.460000
409.597046	153.700000
409.690674	153.520000
409.784302	153.480000
409.877930	153.740000
409.971558	154.120000
410.065186	153.880000
410.158783	153.740000
410.252411	153.780000
410.346039	154.080000
410.439667	153.820000
410.533295	154.140000
410.626923	154.900000
410.720551	154.560000
410.814209	154.720000
410.907806	155.060000
411.001465	154.320000
411.095062	154.080000
411.188721	154.140000
411.282318	153.800000
411.375977	153.240000
411.469574	153.820000
411.563232	153.240000
411.656830	153.120000
411.750488	152.900000
411.844086	153.060000
411.937744	153.140000
412.031372	153.020000
412.125000	153.240000
412.218628	153.320000
412.312256	153.900000
412.405884	154.080000
412.499512	154.020000
412.593170	154.340000
412.686798	154.380000
412.780426	153.380000
412.874054	153.560000
412.967682	154.080000
413.061310	154.080000
413.154968	154.300000
413.248566	155.060000
413.342224	154.440000
413.435852	154.200000
413.529510	154.060000
413.623108	153.380000
413.716766	153.100000
413.810364	153.700000
413.904022	153.560000
413.997650	153.220000
414.091309	154.120000
414.184906	154.020000
414.278564	153.500000
414.372192	153.740000
414.465851	154.100000
414.559479	153.860000
414.653107	154.660000
414.746735	154.540000
414.840393	154.880000
414.934021	154.940000
415.027649	154.440000
415.121277	154.400000
415.214935	155.040000
415.308563	154.580000
415.402191	154.060000
415.495850	154.460000
415.589478	153.660000
415.683136	152.900000
415.776733	153.520000
415.870422	154.060000
415.964020	153.360000
416.057678	153.840000
416.151306	154.220000
416.244965	153.800000
416.338562	153.700000
416.432251	154.740000
416.525848	155.340000
416.619507	155.580000
416.713165	155.840000
416.806793	155.680000
416.900421	155.340000
416.994080	154.400000
417.087708	154.260000
417.181366	153.620000
417.274994	153.500000
417.368622	153.780000
417.462280	154.480000
417.555908	154.420000
417.649567	154.400000
417.743195	154.440000
417.836853	154.300000
417.930481	154.340000
418.024170	154.260000
418.117767	154.700000
418.211426	154.820000
418.305054	154.680000
418.398712	153.700000
418.492340	153.900000
418.585999	154.420000
418.679626	154.480000
418.773285	154.740000
418.866913	155.400000
418.960571	155.620000
419.054230	155.300000
419.147858	155.620000
419.241516	155.600000
419.335144	155.120000
419.428802	154.840000
419.522461	154.300000
419.616089	153.620000
419.709747	153.440000
419.803375	153.680000
419.897034	153.520000
419.990662	153.560000
420.084320	154.100000
420.177979	154.400000
420.271606	154.360000
420.365295	154.860000
420.458893	155.300000
420.552582	155.260000
420.646210	155.000000
420.739868	155.120000
420.833496	154.500000
420.927155	153.940000
421.020782	153.700000
421.114471	153.320000
421.208069	153.220000
421.301758	153.800000
421.395386	154.160000
421.489044	153.880000
421.582703	154.240000
421.676361	154.740000
421.769989	154.060000
421.863647	154.420000
421.957306	154.840000
422.050934	154.880000
422.144592	154.520000
422.238251	154.420000
422.331909	153.780000
422.425537	153.400000
422.519196	153.200000
422.612854	152.860000
422.706543	152.900000
422.800140	153.420000
422.893829	153.320000
422.987457	152.980000
423.081146	153.440000
423.174744	154.160000
423.268433	153.680000
423.362061	154.100000
423.455750	154.180000
423.549347	153.960000
423.643036	153.120000
423.736664	153.860000
423.830353	153.840000
423.924011	154.640000
424.017639	154.200000
424.111298	154.360000
424.204956	153.760000
424.298615	153.940000
424.392273	153.280000
424.485931	153.640000
424.579559	153.940000
424.673218	153.840000
424.766876	153.640000
424.860535	153.500000
424.954193	153.420000
425.047882	153.800000
425.141510	154.120000
425.235199	153.940000
425.328796	153.780000
425.422485	153.900000
425.516113	152.940000
425.609802	152.540000
425.703430	152.920000
425.797119	153.080000
425.890747	153.120000
425.984436	153.620000
426.078064	154.200000
426.171753	154.040000
426.265411	153.760000
426.359070	153.820000
426.452728	153.500000
426.546356	153.400000
426.640015	153.400000
426.733673	153.860000
426.827332	153.300000
426.920990	154.360000
427.014648	153.940000
427.108307	154.180000
427.201965	154.600000
427.295624	155.300000
427.389282	154.360000
427.482941	154.620000
427.576630	154.320000
427.670258	153.860000
427.763947	153.520000
427.857574	153.920000
427.951263	154.040000
428.044922	154.040000
428.138611	154.060000
428.232239	154.720000
428.325928	155.160000
428.419556	155.660000
428.513245	155.560000
428.606903	155.660000
428.700562	154.760000
428.794220	153.980000
428.887878	153.240000
428.981537	153.420000
429.075195	153.340000
429.168854	153.960000
429.262512	153.980000
429.356201	154.120000
429.449860	154.220000
429.543518	154.720000
429.637177	155.160000
429.730835	155.380000
429.824493	155.260000
429.918182	155.220000
430.011810	154.540000
430.105530	153.520000
430.199158	153.760000
430.292847	153.920000
430.386475	153.800000
430.480164	153.860000
430.573792	153.680000
430.667511	153.600000
430.761139	153.580000
430.854828	153.960000
430.948456	154.180000
431.042145	155.240000
431.135834	154.880000
431.229492	155.020000
431.323151	155.100000
431.416809	154.960000
431.510468	154.680000
431.604156	154.660000
431.697815	154.580000
431.791473	154.080000
431.885132	153.760000
431.978821	154.100000
432.072479	154.760000
432.166138	155.160000
432.259827	154.880000
432.353485	155.340000
432.447174	155.100000
432.540802	154.520000
432.634491	154.600000
432.728149	155.400000
432.821838	156.240000
432.915466	155.900000
433.009186	156.160000
433.102814	155.240000
433.196503	154.660000
433.290131	154.120000
433.383850	154.420000
433.477509	154.400000
433.571167	155.700000
433.664856	156.340000
433.758514	156.860000
433.852173	156.740000
433.945862	156.500000
434.039520	156.200000
434.133179	155.460000
434.226868	154.800000
434.320526	154.260000
434.414185	155.000000
434.507874	154.300000
434.601562	154.660000
434.695221	154.400000
434.788910	154.920000
434.882538	154.920000
434.976257	154.840000
435.069885	154.980000
435.163574	155.440000
435.257233	155.100000
435.350922	154.740000
435.444580	154.700000
435.538269	154.240000
435.631897	154.360000
435.725616	155.080000
435.819275	155.560000
435.912964	156.220000
436.006622	156.700000
436.100311	156.240000
436.193970	155.400000
436.287628	154.900000
436.381317	154.680000
436.474976	154.220000
436.568665	154.060000
436.662323	154.300000
436.756012	154.220000
436.849670	153.700000
436.943390	153.860000
437.037018	153.900000
437.130737	153.900000
437.224365	153.700000
437.318085	153.940000
437.411713	153.920000
437.505432	154.340000
437.599060	155.040000
437.692780	155.660000
437.786407	155.820000
437.880127	155.720000
437.973755	155.500000
438.067474	154.820000
438.161133	154.800000
438.254822	155.140000
438.348480	154.900000
438.442169	155.480000
438.535828	155.580000
438.629517	154.860000
438.723175	154.120000
438.816864	154.920000
438.910553	154.120000
439.004211	154.260000
439.097900	154.240000
439.191559	154.480000
439.285248	153.560000
439.378906	153.860000
439.472626	153.420000
439.566284	153.340000
439.659973	153.500000
439.753632	153.660000
439.847321	153.960000
439.940979	154.200000
440.034698	154.380000
440.128326	153.960000
440.222046	153.920000
440.315674	152.940000
440.409393	153.000000
440.503082	152.920000
440.596741	153.220000
440.690430	153.520000
440.784088	153.820000
440.877777	153.320000
440.971466	153.260000
441.065125	152.780000
441.158813	152.460000
441.252502	152.620000
441.346161	153.080000
441.439850	153.400000
441.533539	153.480000
441.627197	153.860000
441.720886	153.520000
441.814606	153.800000
441.908234	154.360000
442.001953	154.480000
442.095612	154.420000
442.189301	155.100000
442.282959	154.820000
442.376678	153.880000
442.470306	154.920000
442.564026	154.680000
442.657684	154.560000
442.751404	154.540000
442.845032	155.440000
442.938751	154.100000
443.032440	154.320000
443.126099	153.800000
443.219788	154.220000
443.313477	153.600000
443.407166	154.040000
443.500824	154.020000
443.594513	154.260000
443.688202	153.860000
443.781891	153.640000
443.875549	153.200000
443.969238	153.460000
444.062927	153.520000
444.156647	153.320000
444.250275	153.840000
444.343994	154.140000
444.437653	154.040000
444.531372	154.340000
444.625031	154.180000
444.718719	153.560000
444.812378	153.640000
444.906097	153.400000
444.999756	152.580000
445.093445	152.880000
445.187103	153.260000
445.280823	153.860000
445.374512	153.360000
445.468201	153.760000
445.561859	153.520000
445.655548	153.460000
445.749237	152.760000
445.842926	153.260000
445.936615	153.600000
446.030304	153.560000
446.123962	153.940000
446.217651	153.860000
446.311340	153.940000
446.405029	153.660000
446.498749	153.560000
446.592407	153.120000
446.686096	153.700000
446.779755	153.720000
446.873474	153.920000
446.967133	154.140000
447.060852	153.760000
447.154510	153.340000
447.248230	153.240000
447.341858	153.040000
447.435577	152.900000
447.529236	152.640000
447.622955	152.480000
447.716644	152.600000
447.810333	152.420000
447.904022	152.720000
447.997711	153.060000
448.091400	153.420000
448.185059	153.560000
448.278748	154.000000
448.372437	153.780000
448.466125	154.060000
448.559814	154.040000
448.653503	154.240000
448.747192	154.540000
448.840912	155.160000
448.934570	155.040000
449.028290	155.200000
449.121948	154.780000
449.215637	154.160000
449.309296	153.560000
449.403015	153.880000
449.496674	153.740000
449.590393	153.580000
449.684052	153.620000
449.777771	154.400000
449.871429	153.720000
449.965149	153.740000
450.058838	154.100000
450.152527	154.380000
450.246216	153.960000
450.339905	154.620000
450.433594	154.440000
450.527283	154.960000
450.620972	154.660000
450.714661	154.340000
450.808350	154.240000
450.902039	154.580000
450.995728	154.080000
451.089417	153.720000
451.183105	153.800000
451.276794	154.320000
451.370514	153.620000
451.464172	152.860000
451.557892	153.040000
451.651550	153.540000
451.745270	152.700000
451.838928	152.320000
451.932648	152.980000
452.026306	153.660000
452.120026	153.020000
452.213684	153.280000
452.307404	154.140000
452.401062	154.380000
452.494781	154.060000
452.588470	154.500000
452.682159	154.320000
452.775848	154.160000
452.869537	153.360000
452.963226	153.180000
453.056915	152.860000
453.150604	153.360000
453.244293	153.480000
453.337982	154.880000
453.431671	155.160000
453.525360	155.780000
453.619049	155.260000
453.712769	155.140000
453.806427	153.820000
453.900146	153.480000
453.993805	152.820000
454.087555	153.420000
454.181213	153.640000
454.274933	153.900000
454.368591	153.860000
454.462311	153.700000
454.555969	153.040000
454.649689	153.580000
454.743347	153.360000
454.837067	154.140000
454.930756	155.060000
455.024445	155.460000
455.118134	154.680000
455.211853	154.960000
455.305542	154.380000
455.399231	154.000000
455.492920	153.660000
455.586609	153.920000
455.680298	153.980000
455.773987	153.580000
455.867676	153.500000
455.961365	154.040000
456.055084	153.660000
456.148773	153.520000
456.242493	153.680000
456.336151	153.800000
456.429871	153.800000
456.523529	154.420000
456.617249	154.100000
456.710907	154.860000
456.804626	154.540000
456.898315	153.840000
456.992035	153.540000
457.085693	153.540000
457.179413	152.400000
457.273102	153.420000
457.366791	153.760000
457.460480	154.160000
457.554199	155.080000
457.647888	155.660000
457.741577	154.720000
457.835266	154.900000
457.928955	154.720000
458.022644	154.660000
458.116364	154.820000
458.210052	154.460000
458.303741	154.180000
458.397461	153.340000
458.491119	152.600000
458.584839	152.400000
458.678528	152.580000
458.772247	152.180000
458.865906	152.940000
458.959625	153.640000
459.053284	153.520000
459.147003	153.400000
459.240692	154.640000
459.334412	154.260000
459.428070	153.860000
459.521790	153.660000
459.615479	153.560000
459.709198	153.540000
459.802887	153.140000
459.896576	153.100000
459.990265	153.640000
460.083954	154.220000
460.177673	153.440000
460.271362	153.760000
460.365051	153.740000
460.458740	153.460000
460.552429	152.760000
460.646149	152.800000
460.739838	152.760000
460.833527	153.040000
460.927246	152.940000
461.020905	153.080000
461.114655	152.840000
461.208313	152.980000
461.302032	152.260000
461.395691	152.400000
461.489441	152.680000
461.583099	152.780000
461.676819	152.380000
461.770477	152.920000
461.864197	152.620000
461.957916	152.580000
462.051605	152.400000
462.145294	153.920000
462.238983	153.660000
462.332703	154.400000
462.426392	154.760000
462.520081	154.800000
462.613770	153.800000
462.707489	154.100000
462.801178	153.560000
462.894867	153.340000
462.988556	153.380000
463.082275	153.540000
463.175964	153.080000
463.269684	153.400000
463.363342	153.120000
463.457092	152.600000
463.550751	152.860000
463.644470	153.400000
463.738129	153.120000
463.831879	153.640000
463.925537	154.700000
464.019257	154.500000
464.112946	154.380000
464.206665	154.220000
464.300323	154.000000
464.394043	153.500000
464.487762	153.460000
464.581451	153.680000
464.675140	153.780000
464.768829	153.900000
464.862549	154.160000
464.956238	154.020000
465.049927	154.080000
465.143646	154.740000
465.237335	154.560000
465.331024	154.840000
465.424713	155.060000
465.518433	154.980000
465.612152	154.100000
465.705811	154.260000
465.799561	154.020000
465.893219	153.940000
465.986938	153.720000
466.080597	153.760000
466.174347	153.900000
466.268005	153.860000
466.361725	153.400000
466.455414	153.160000
466.549133	153.260000
466.642792	153.100000
466.736542	152.680000
466.830231	153.100000
466.923920	153.160000
467.017609	153.140000
467.111328	152.920000
467.205017	153.140000
467.298706	152.640000
467.392426	152.840000
467.486115	153.280000
467.579803	152.700000
467.673523	153.320000
467.767212	153.840000
467.860901	153.880000
467.954651	153.900000
468.048309	154.640000
468.142029	154.320000
468.235718	154.300000
468.329437	153.980000
468.423096	153.780000
468.516846	153.600000
468.610504	153.100000
468.704224	152.700000
468.797913	152.840000
468.891632	152.960000
468.985291	152.960000
469.079010	153.320000
469.172729	152.940000
469.266418	153.620000
469.360107	153.760000
469.453827	153.740000
469.547516	153.580000
469.641205	154.440000
469.734924	154.280000
469.828613	154.540000
469.922302	154.740000
470.016022	154.940000
470.109711	154.660000
470.203430	153.960000
470.297150	152.900000
470.390808	152.960000
470.484558	152.740000
470.578217	153.180000
470.671936	153.440000
470.765625	154.680000
470.859344	154.180000
470.953003	154.480000
471.046753	153.920000
471.140411	153.500000
471.234131	153.080000
471.327820	153.900000
471.421539	153.500000
471.515228	153.620000
471.608948	154.140000
471.702637	153.660000
471.796326	153.100000
471.890045	153.660000
471.983734	153.740000
472.077423	153.440000
472.171143	153.900000
472.264832	154.020000
472.358521	153.500000
472.452240	153.120000
472.545929	153.840000
472.639648	153.660000
472.733337	153.760000
472.827057	153.940000
472.920746	154.320000
473.014465	154.320000
473.108124	154.420000
473.201874	154.340000
473.295532	154.320000
473.389252	154.620000
473.482941	154.420000
473.576660	153.980000
473.670319	153.900000
473.764069	154.140000
473.857727	154.400000
473.951477	154.880000
474.045166	155.540000
474.138855	155.480000
474.232574	155.340000
474.326263	154.980000
474.419952	154.980000
474.513672	154.740000
474.607361	154.540000
474.701050	154.740000
474.794769	154.960000
474.888458	154.700000
474.982178	154.620000
475.075867	155.120000
475.169586	155.040000
475.263275	154.720000
475.356995	154.500000
475.450653	154.200000
475.544403	153.540000
475.638062	154.320000
475.731812	154.120000
475.825470	153.760000
475.919189	154.040000
476.012878	154.420000
476.106598	153.640000
476.200256	153.960000
476.294006	154.260000
476.387695	154.180000
476.481384	154.120000
476.575104	154.040000
476.668793	153.660000
476.762512	153.060000
476.856201	153.820000
476.949890	153.620000
477.043610	153.280000
477.137299	153.280000
477.230988	154.040000
477.324707	153.800000
477.418396	154.620000
477.512146	154.680000
477.605804	154.700000
477.699524	154.400000
477.793213	154.060000
477.886932	153.520000
477.980591	153.520000
478.074341	153.320000
478.167999	152.620000
478.261749	152.820000
478.355408	152.800000
478.449127	152.920000
478.542816	153.800000
478.636536	154.860000
478.730225	154.800000
478.823944	154.860000
478.917633	155.140000
479.011322	155.140000
479.105042	155.080000
479.198730	155.300000
479.292450	155.420000
479.386139	155.600000
479.479828	155.660000
479.573547	155.600000
479.667267	155.020000
479.760925	154.900000
479.854675	154.960000
479.948334	154.720000
480.042084	154.360000
480.135742	154.880000
480.229462	154.360000
480.323151	154.100000
480.416870	153.540000
480.510529	153.680000
480.604279	153.060000
480.697937	153.900000
480.791656	153.520000
480.885345	153.320000
480.979065	153.120000
481.072754	153.680000
481.166473	153.540000
481.260132	153.820000
481.353882	154.220000
481.447540	154.340000
481.541260	154.400000
481.635010	153.980000
481.728668	153.900000
481.822388	153.680000
481.916077	153.840000
482.009796	153.320000
482.103485	153.640000
482.197205	153.440000
482.290863	153.540000
482.384613	153.200000
482.478271	153.120000
482.571991	152.840000
482.665680	152.960000
482.759399	153.560000
482.853058	154.360000
482.946808	154.340000
483.040466	154.520000
483.134216	154.300000
483.227875	153.680000
483.321594	153.760000
483.415283	154.000000
483.509003	153.900000
483.602661	154.060000
483.696411	154.640000
483.790070	154.240000
483.883789	154.140000
483.977478	154.520000
484.071198	154.520000
484.164917	153.680000
484.258606	153.260000
484.352325	153.580000
484.445984	153.800000
484.539734	153.800000
484.633392	153.940000
484.727142	154.660000
484.820801	154.600000
484.914520	154.080000
485.008209	154.480000
485.101929	154.900000
485.195587	154.540000
485.289337	154.340000
485.382996	154.560000
485.476715	154.360000
485.570404	154.500000
485.664124	154.260000
485.757782	154.720000
485.851532	154.360000
485.945190	154.200000
486.038910	154.000000
486.132599	154.440000
486.226318	153.700000
486.319977	153.740000
486.413727	154.540000
486.507446	154.360000
486.601105	153.820000
486.694855	153.840000
486.788513	153.720000
486.882233	153.140000
486.975922	153.020000
487.069641	153.020000
487.163300	153.140000
487.257050	154.420000
487.350708	154.120000
487.444427	154.180000
487.538116	154.260000
487.631836	154.000000
487.725494	153.200000
487.819214	153.320000
487.912903	153.360000
488.006622	153.620000
488.100281	154.120000
488.194031	154.120000
488.287689	154.400000
488.381409	155.020000
488.475098	154.920000
488.568817	155.000000
488.662476	154.780000
488.756226	154.180000
488.849945	152.880000
488.943604	152.860000
489.037354	153.080000
489.131012	153.020000
489.224731	153.320000
489.318390	153.820000
489.412140	153.800000
489.505798	153.520000
489.599518	153.420000
489.693207	153.360000
489.786926	153.200000
489.880585	152.780000
489.974335	152.740000
490.067993	153.800000
490.161713	154.420000
490.255371	155.740000
490.349121	156.000000
490.442780	155.920000
490.536499	154.900000
490.630188	154.280000
490.723907	153.200000
490.817566	153.520000
490.911285	153.540000
491.004974	153.540000
491.098694	153.160000
491.192413	154.040000
491.286102	154.020000
491.379822	153.980000
491.473480	154.140000
491.567200	154.740000
491.660889	153.680000
491.754608	153.600000
491.848267	153.520000
491.941986	153.360000
492.035675	153.360000
492.129395	154.160000
492.223053	154.220000
492.316772	154.520000
492.410461	154.360000
492.504181	154.160000
492.597839	153.640000
492.691559	153.360000
492.785248	153.420000
492.878967	153.900000
492.972626	153.760000
493.066345	153.760000
493.160034	153.780000
493.253754	153.420000
493.347412	152.800000
493.441132	153.000000
493.534882	153.720000
493.628540	154.080000
493.722260	154.360000
493.815918	155.020000
493.909668	155.500000
494.003326	155.480000
494.097046	155.200000
494.190704	155.000000
494.284454	154.740000
494.378113	154.920000
494.471832	154.080000
494.565491	153.940000
494.659210	154.080000
494.752899	153.840000
494.846619	153.340000
494.940277	153.880000
495.033997	153.920000
495.127686	153.340000
495.221405	153.320000
495.315063	153.120000
495.408783	153.100000
495.502441	153.340000
495.596191	153.680000
495.689850	153.620000
495.783569	154.280000
495.877228	154.160000
495.970947	153.600000
496.064697	154.100000
496.158356	154.940000
496.252075	154.360000
496.345734	154.000000
496.439453	155.060000
496.533142	154.760000
496.626862	154.820000
496.720520	154.800000
496.814240	155.000000
496.907898	154.240000
497.001617	154.040000
497.095306	153.020000
497.189026	153.060000
497.282684	153.180000
497.376404	153.900000
497.470062	153.840000
497.563782	153.900000
497.657471	153.800000
497.751190	153.720000
497.844849	153.080000
497.938568	153.580000
498.032227	153.840000
498.125946	154.080000
498.219635	153.940000
498.313354	154.280000
498.407074	153.660000
498.500732	154.100000
498.594452	153.980000
498.688110	153.820000
498.781830	153.320000
498.875519	153.660000
498.969238	153.300000
499.062897	153.340000
499.156616	154.100000
499.250275	154.280000
499.343994	153.740000
499.437653	153.820000
499.531372	154.020000
499.625061	154.300000
499.718781	154.220000
499.812439	154.980000
499.906158	154.820000
499.999817	154.560000
500.093536	153.800000
500.187195	154.000000
500.280914	153.840000
500.374573	154.260000
500.468323	153.840000
500.561981	154.060000
500.655701	153.600000
500.749420	153.240000
500.843079	152.960000
500.936798	153.420000
501.030457	153.760000
501.124176	154.480000
501.217834	154.660000
501.311554	154.680000
501.405212	154.540000
501.498962	153.820000
501.592621	153.280000
501.686340	153.620000
501.779999	153.740000
501.873718	153.920000
501.967377	154.160000
502.061096	154.720000
502.154755	153.980000
502.248474	153.940000
502.342133	153.940000
502.435852	153.860000
502.529510	154.160000
502.623230	154.980000
502.716888	154.460000
502.810608	154.380000
502.904266	154.600000
502.997986	153.820000
503.091705	153.200000
503.185364	153.280000
503.279083	153.180000
503.372772	153.180000
503.466492	152.740000
503.560150	152.900000
503.653870	153.400000
503.747528	153.400000
503.841248	153.180000
503.934906	153.680000
504.028625	153.300000
504.122284	153.340000
504.216003	154.160000
504.309662	154.040000
504.403381	154.420000
504.497040	154.880000
504.590759	154.420000
504.684418	154.380000
504.778137	154.720000
504.871796	154.600000
504.965515	154.320000
505.059174	154.700000
505.152893	153.640000
505.246521	153.080000
505.340240	152.760000
505.433899	152.840000
505.527618	152.760000
505.621338	153.440000
505.714996	153.700000
505.808716	153.360000
505.902374	154.000000
505.996094	153.820000
506.089752	153.180000
506.183472	153.160000
506.277130	153.980000
506.370850	153.640000
506.464508	154.020000
506.558228	154.320000
506.651886	154.020000
506.745605	153.760000
506.839264	153.600000
506.932983	153.160000
507.026611	153.020000
507.120331	153.620000
507.213989	153.020000
507.307709	153.240000
507.401367	154.080000
507.495087	155.060000
507.588745	154.660000
507.682465	155.940000
507.776123	155.780000
507.869843	155.100000
507.963531	154.640000
508.057190	155.220000
508.150909	154.140000
508.244568	154.340000
508.338287	154.080000
508.431946	153.680000
508.525665	153.220000
508.619324	153.120000
508.713013	153.020000
508.806671	153.340000
508.900391	154.300000
508.994049	154.540000
509.087769	154.340000
509.181427	154.320000
509.275146	154.440000
509.368774	153.400000
509.462494	153.040000
509.556152	153.220000
509.649872	153.600000
509.743530	153.440000
509.837250	153.620000
509.930878	153.600000
510.024597	153.760000
510.118256	153.480000
510.211975	153.500000
510.305695	153.360000
510.399353	153.940000
510.493042	154.500000
510.586700	154.640000
510.680420	155.240000
510.774078	155.040000
510.867798	154.900000
510.961426	154.060000
511.055145	153.980000
511.148804	153.260000
511.242523	154.100000
511.336151	154.380000
511.429871	155.060000
511.523529	154.820000
511.617249	154.600000
511.710876	154.020000
511.804596	153.120000
511.898254	152.820000
511.991974	153.260000
512.085632	153.200000
512.179321	153.280000
512.272949	154.180000
512.366699	154.400000
512.460327	154.100000
512.554077	155.300000
512.647766	155.580000
512.741394	155.080000
512.835144	155.600000
512.928772	155.420000
513.022461	154.900000
513.116150	154.380000
513.209839	155.000000
513.303467	154.340000
513.397217	153.780000
513.490845	153.540000
513.584595	153.440000
513.678223	152.580000
513.771912	151.740000
513.865601	152.200000
513.959290	151.980000
514.052917	152.300000
514.146667	153.120000
514.240295	153.920000
514.333984	154.340000
514.427673	154.220000
514.521362	154.560000
514.614990	153.820000
514.708740	153.820000
514.802368	153.840000
514.896057	154.040000
514.989746	154.460000
515.083435	154.320000
515.177124	154.620000
515.270752	154.160000
515.364502	154.360000
515.458130	154.080000
515.551819	153.980000
515.645508	153.660000
515.739197	153.940000
515.832825	153.660000
515.926575	153.080000
516.020203	153.760000
516.113892	154.280000
516.207520	154.120000
516.301270	154.200000
516.394897	154.660000
516.488586	154.820000
516.582275	154.780000
516.675964	154.180000
516.769592	154.100000
516.863281	154.360000
516.956970	154.820000
517.050659	154.380000
517.144287	154.840000
517.238037	154.960000
517.331665	154.400000
517.425354	153.500000
517.519043	153.420000
517.612732	153.920000
517.706421	153.760000
517.800049	153.620000
517.893738	153.400000
517.987427	153.440000
518.081116	152.820000
518.174744	152.800000
518.268433	153.320000
518.362122	154.020000
518.455811	153.820000
518.549438	154.820000
518.643127	155.720000
518.736816	155.480000
518.830505	154.700000
518.924133	154.860000
519.017822	154.580000
519.111511	153.860000
519.205200	154.440000
519.298828	154.780000
519.392517	154.580000
519.486206	154.360000
519.579895	154.680000
519.673523	153.920000
519.767212	153.840000
519.860901	154.480000
519.954590	154.200000
520.048279	153.680000
520.141907	153.860000
520.235596	154.820000
520.329224	154.880000
520.422974	155.160000
520.516602	155.260000
520.610291	154.860000
520.703918	154.440000
520.797607	153.840000
520.891296	153.880000
520.984985	154.100000
521.078613	155.020000
521.172302	154.260000
521.265930	155.500000
521.359680	155.800000
521.453308	155.740000
521.546997	155.060000
521.640625	155.540000
521.734314	154.540000
521.827942	154.340000
521.921692	154.640000
522.015320	154.640000
522.109009	154.280000
522.202698	154.320000
522.296326	153.820000
522.390015	153.740000
522.483704	153.980000
522.577393	153.800000
522.671021	153.360000
522.764709	153.300000
522.858337	153.680000
522.952026	153.600000
523.045654	154.440000
523.139404	155.620000
523.233032	156.120000
523.326721	155.500000
523.420349	155.600000
523.514038	154.980000
523.607666	154.960000
523.701355	154.520000
523.795044	154.560000
523.888733	154.640000
523.982361	154.880000
524.076050	154.240000
524.169678	154.860000
524.263367	154.500000
524.356995	154.120000
524.450684	154.080000
524.544373	153.700000
524.638062	153.280000
524.731750	153.720000
524.825378	153.700000
524.919067	153.440000
525.012695	153.820000
525.106384	153.660000
525.200012	153.580000
525.293701	153.680000
525.387329	153.940000
525.481018	154.060000
525.574646	154.540000
525.668396	154.500000
525.762024	154.800000
525.855713	155.000000
525.949341	154.300000
526.043030	154.400000
526.136658	154.160000
526.230347	153.420000
526.323975	152.880000
526.417664	152.980000
526.511292	152.780000
526.604980	153.160000
526.698608	153.460000
526.792297	153.800000
526.885925	154.280000
526.979614	154.340000
527.073303	154.060000
527.166931	154.340000
527.260620	154.620000
527.354309	154.820000
527.447998	154.540000
527.541626	154.500000
527.635315	154.420000
527.728943	154.640000
527.822632	154.800000
527.916260	154.880000
528.009949	155.320000
528.103577	155.100000
528.197266	154.380000
528.290894	154.280000
528.384583	154.140000
528.478210	153.880000
528.571899	154.280000
528.665527	154.720000
528.759216	154.500000
528.852844	155.020000
528.946533	154.640000
529.040161	154.280000
529.133850	153.760000
529.227478	154.260000
529.321167	154.180000
529.414856	154.980000
529.508484	155.460000
529.602173	154.980000
529.695801	154.200000
529.789490	154.000000
529.883057	153.680000
529.976746	153.580000
530.070374	154.400000
530.164062	154.520000
530.257690	154.620000
530.351379	154.560000
530.445007	154.300000
530.538696	153.880000
530.632324	154.440000
530.726013	154.180000
530.819641	153.980000
530.913330	153.920000
531.006958	154.000000
531.100647	153.720000
531.194275	153.560000
531.287964	153.640000
531.381592	153.460000
531.475220	153.620000
531.568848	153.360000
531.662537	153.420000
531.756226	153.860000
531.849854	154.120000
531.943542	153.920000
532.037170	153.460000
532.130859	153.900000
532.224487	153.340000
532.318176	152.760000
532.411804	153.340000
532.505432	154.060000
532.599060	153.800000
532.692749	153.800000
532.786377	154.580000
532.880066	153.980000
532.973694	153.340000
533.067383	153.460000
533.161011	153.660000
533.254639	153.480000
533.348267	153.300000
533.441956	154.060000
533.535583	153.540000
533.629272	153.760000
533.722900	153.300000
533.816589	153.620000
533.910156	153.440000
534.003845	153.340000
534.097534	153.240000
534.191162	154.160000
534.284851	154.500000
534.378479	154.400000
534.472107	154.520000
534.565735	154.500000
534.659424	154.260000
534.753052	154.420000
534.846741	153.840000
534.940369	154.800000
535.033997	154.400000
535.127625	154.320000
535.221313	154.740000
535.314941	154.940000
535.408630	153.920000
535.502197	154.640000
535.595886	154.240000
535.689514	153.480000
535.783203	153.960000
535.876831	154.640000
535.970459	154.320000
536.064087	154.160000
536.157776	154.260000
536.251404	154.520000
536.345093	154.180000
536.438721	154.080000
536.532349	154.520000
536.626038	154.220000
536.719666	154.260000
536.813293	154.080000
536.906921	154.020000
537.000610	154.080000
537.094238	154.100000
537.187866	153.760000
537.281494	153.740000
537.375183	154.000000
537.468811	153.800000
537.562439	154.200000
537.656067	154.260000
537.749756	154.120000
537.843384	154.380000
537.937012	154.660000
538.030640	154.180000
538.124329	153.940000
538.217896	154.780000
538.311584	154.920000
538.405212	154.880000
538.498901	155.340000
538.592468	156.200000
538.686157	155.520000
538.779785	154.580000
538.873413	154.480000
538.967102	154.260000
539.060730	153.280000
539.154358	153.540000
539.247986	154.060000
539.341675	154.060000
539.435242	153.980000
539.528931	154.200000
539.622559	153.980000
539.716187	154.360000
539.809814	154.240000
539.903503	154.140000
539.997070	154.220000
540.090759	154.220000
540.184387	153.900000
540.278015	154.500000
540.371643	154.840000
540.465332	154.840000
540.558899	154.820000
540.652588	154.640000
540.746216	153.940000
540.839844	154.360000
540.933472	154.320000
541.027100	154.260000
541.120728	154.280000
541.214417	154.440000
541.308044	154.120000
541.401672	154.040000
541.495300	153.780000
541.588928	153.860000
541.682617	153.740000
541.776184	153.440000
541.869873	153.740000
541.963440	154.300000
542.057129	154.080000
542.150757	154.200000
542.244385	153.840000
542.338013	153.220000
542.431641	153.140000
542.525269	153.300000
542.618958	153.980000
542.712524	154.420000
542.806213	154.320000
542.899780	154.480000
542.993469	154.220000
543.087036	153.560000
543.180725	153.180000
543.274292	153.840000
543.367981	153.960000
543.461548	154.600000
543.555237	154.620000
543.648926	155.200000
543.742493	155.640000
543.836182	155.500000
543.929749	155.040000
544.023437	155.020000
544.117004	155.000000
544.210693	154.780000
544.304260	154.480000
544.397949	154.360000
544.491516	154.540000
544.585205	154.260000
544.678772	153.580000
544.772461	154.160000
544.866028	154.180000
544.959717	154.140000
545.053284	153.920000
545.146973	154.400000
545.240540	154.340000
545.334229	154.920000
545.427795	155.040000
545.521423	155.540000
545.615051	155.340000
545.708679	155.660000
545.802307	155.240000
545.895935	155.380000
545.989624	155.920000
546.083191	155.860000
546.176880	155.340000
546.270447	155.020000
546.364136	155.420000
546.457703	154.400000
546.551331	154.600000
546.644958	154.960000
546.738586	155.740000
546.832214	155.080000
546.925842	155.240000
547.019409	155.420000
547.113098	154.860000
547.206665	154.320000
547.300354	154.400000
547.393921	154.660000
547.487549	154.720000
547.581177	154.560000
547.674805	154.440000
547.768433	153.800000
547.862061	153.660000
547.955627	153.180000
548.049316	153.980000
548.142883	154.380000
548.236572	155.000000
548.330139	155.480000
548.423767	155.300000
548.517456	154.880000
548.611023	155.140000
548.704651	154.700000
548.798279	154.380000
548.891907	155.080000
548.985474	154.900000
549.079163	154.680000
549.172729	154.440000
549.266357	153.820000
549.359985	153.560000
549.453613	153.200000
549.547180	152.660000
549.640869	153.420000
549.734436	153.440000
549.828064	153.720000
549.921631	153.840000
550.015320	153.780000
550.108887	153.880000
550.202515	154.180000
550.296143	153.380000
550.389771	153.740000
550.483337	153.780000
550.576965	153.340000
550.670593	153.820000
550.764221	154.260000
550.857849	153.980000
550.951477	153.700000
551.045105	153.480000
551.138672	153.180000
551.232300	152.600000
551.325928	153.020000
551.419556	153.500000
551.513123	153.580000
551.606750	153.220000
551.700378	153.780000
551.794006	153.720000
551.887573	153.680000
551.981201	154.540000
552.074768	154.620000
552.168457	154.460000
552.262024	155.300000
552.355652	155.260000
552.449219	155.320000
552.542847	155.740000
552.636475	155.440000
552.730103	154.220000
552.823669	154.240000
552.917297	153.480000
553.010864	152.920000
553.104553	153.200000
553.198181	152.880000
553.291748	153.220000
553.385376	153.740000
553.478943	153.720000
553.572571	154.020000
553.666199	154.520000
553.759827	154.320000
553.853394	153.440000
553.947021	153.720000
554.040588	153.500000
554.134216	153.760000
554.227783	154.300000
554.321411	155.360000
554.415039	154.740000
554.508667	154.640000
554.602234	154.660000
554.695862	154.040000
554.789429	153.780000
554.883057	154.380000
554.976624	154.540000
555.070251	154.240000
555.163818	153.900000
555.257507	153.600000
555.351074	153.780000
555.444702	154.760000
555.538330	154.280000
555.631897	155.000000
555.725525	154.660000
555.819092	154.260000
555.912720	153.260000
556.006287	154.180000
556.099915	153.800000
556.193481	153.940000
556.287109	154.140000
556.380676	153.700000
556.474304	153.500000
556.567871	153.780000
556.661499	153.500000
556.755066	153.540000
556.848694	154.060000
556.942261	153.800000
557.035889	154.080000
557.129517	154.440000
557.223145	154.920000
557.316711	154.920000
557.410339	155.180000
557.503906	154.680000
557.597473	155.120000
557.691040	154.480000
557.784668	154.200000
557.878296	153.980000
557.971863	154.440000
558.065491	154.380000
558.159058	154.580000
558.252686	155.620000
558.346252	156.160000
558.439880	155.220000
558.533447	154.560000
558.627075	154.080000
558.720642	152.840000
558.814270	152.460000
558.907837	152.740000
559.001465	152.560000
559.095032	153.580000
559.188660	154.280000
559.282227	153.500000
559.375854	154.000000
559.469360	154.340000
559.562988	154.380000
559.656555	154.160000
559.750183	154.820000
559.843750	154.680000
559.937378	154.680000
560.030945	153.980000
560.124573	0.000000
560.218140	0.000000
560.311707	0.000000
560.405334	0.000000
560.498901	0.000000
560.592529	0.000000
560.686096	0.000000
560.779724	0.000000
560.873291	0.000000
560.966858	0.000000
561.060425	0.000000
561.154053	0.000000
561.247620	0.000000
561.341248	0.000000
561.434814	0.000000
561.528381	0.000000
561.621948	0.000000
561.715576	0.000000
561.809143	0.000000
561.902771	0.000000
561.996277	0.000000
562.089905	0.000000
562.183472	0.000000
562.277100	0.000000
