Model Number: SPM-002-B   
Serial Number: 70087108
Firmware Version: 004.15.4
Exposure Time: 100000.000000us
Data Taken on: 15-01-2021 17:48:12.248
Wavelength	Amplitude
221.570786	0.000000
221.663406	0.000000
221.756027	0.000000
221.848648	0.000000
221.941269	0.000000
222.033905	0.000000
222.126526	0.000000
222.219162	0.000000
222.311798	0.000000
222.404419	0.000000
222.497055	0.000000
222.589676	0.000000
222.682312	0.000000
222.774933	0.000000
222.867569	0.000000
222.960205	0.000000
223.052841	0.000000
223.145462	0.000000
223.238098	0.000000
223.330734	0.000000
223.423386	0.000000
223.516022	0.000000
223.608658	0.000000
223.701309	0.000000
223.793945	0.000000
223.886581	0.000000
223.979218	0.000000
224.071869	0.000000
224.164505	0.000000
224.257156	0.000000
224.349792	0.000000
224.442444	0.000000
224.535095	0.000000
224.627747	0.000000
224.720398	0.000000
224.813034	0.000000
224.905685	0.000000
224.998337	153.980000
225.090988	153.580000
225.183640	153.680000
225.276291	153.800000
225.368942	154.240000
225.461594	154.880000
225.554245	155.180000
225.646912	155.160000
225.739578	155.660000
225.832230	156.160000
225.924896	155.420000
226.017548	155.780000
226.110199	156.440000
226.202866	155.760000
226.295532	155.480000
226.388184	155.500000
226.480850	154.740000
226.573517	154.100000
226.666168	154.160000
226.758835	154.180000
226.851501	154.860000
226.944183	154.940000
227.036850	154.380000
227.129517	154.280000
227.222183	154.220000
227.314850	153.720000
227.407516	154.040000
227.500198	155.260000
227.592865	155.100000
227.685532	154.840000
227.778214	154.460000
227.870880	154.740000
227.963562	154.540000
228.056229	155.020000
228.148926	155.360000
228.241592	156.480000
228.334274	155.780000
228.426956	155.480000
228.519638	155.640000
228.612305	154.520000
228.704987	154.100000
228.797668	154.580000
228.890350	154.400000
228.983032	153.740000
229.075714	155.180000
229.168396	154.660000
229.261108	154.120000
229.353790	154.020000
229.446472	154.420000
229.539169	153.880000
229.631851	153.660000
229.724533	154.000000
229.817230	154.280000
229.909912	155.020000
230.002609	154.960000
230.095306	155.180000
230.187988	155.260000
230.280685	154.880000
230.373383	153.740000
230.466095	153.900000
230.558792	154.280000
230.651474	154.180000
230.744171	154.280000
230.836868	154.340000
230.929581	154.640000
231.022278	154.580000
231.114975	154.580000
231.207672	154.500000
231.300369	155.040000
231.393082	154.980000
231.485779	154.720000
231.578506	154.660000
231.671204	154.800000
231.763916	154.740000
231.856613	154.680000
231.949326	154.900000
232.042023	154.860000
232.134735	154.900000
232.227448	154.640000
232.320160	154.680000
232.412872	154.420000
232.505585	155.460000
232.598297	155.760000
232.691010	155.600000
232.783722	155.260000
232.876450	156.060000
232.969162	154.960000
233.061874	154.440000
233.154587	154.380000
233.247314	154.800000
233.340027	153.980000
233.432739	154.600000
233.525467	154.520000
233.618179	154.900000
233.710907	154.360000
233.803635	154.860000
233.896347	154.460000
233.989090	155.480000
234.081818	155.400000
234.174545	155.460000
234.267258	155.220000
234.359985	155.340000
234.452713	154.740000
234.545441	154.460000
234.638168	154.640000
234.730896	155.140000
234.823639	155.100000
234.916367	155.300000
235.009094	155.140000
235.101822	154.900000
235.194580	154.500000
235.287308	154.300000
235.380051	153.880000
235.472778	154.460000
235.565521	154.580000
235.658249	154.160000
235.750992	154.460000
235.843719	154.560000
235.936462	154.760000
236.029205	154.720000
236.121948	154.440000
236.214691	154.840000
236.307449	155.660000
236.400192	155.080000
236.492935	154.700000
236.585678	155.060000
236.678421	154.680000
236.771164	154.120000
236.863907	154.500000
236.956665	154.860000
237.049408	156.600000
237.142151	156.220000
237.234909	157.060000
237.327652	156.780000
237.420410	156.580000
237.513153	155.420000
237.605927	155.460000
237.698669	154.620000
237.791428	154.200000
237.884186	154.820000
237.976944	154.260000
238.069702	154.500000
238.162445	153.960000
238.255203	154.420000
238.347961	154.620000
238.440720	154.780000
238.533478	154.760000
238.626266	154.620000
238.719025	154.320000
238.811783	153.960000
238.904541	153.860000
238.997314	153.580000
239.090073	153.460000
239.182831	154.220000
239.275604	155.080000
239.368362	154.980000
239.461136	155.100000
239.553909	155.400000
239.646667	154.940000
239.739441	154.000000
239.832214	154.340000
239.925003	154.400000
240.017761	154.860000
240.110535	155.580000
240.203308	155.320000
240.296082	155.300000
240.388855	155.660000
240.481628	155.780000
240.574417	155.320000
240.667191	155.400000
240.759964	154.980000
240.852737	154.420000
240.945526	153.980000
241.038315	153.560000
241.131088	153.680000
241.223877	154.060000
241.316650	153.800000
241.409439	154.280000
241.502228	154.540000
241.595001	155.080000
241.687790	154.700000
241.780579	155.020000
241.873367	155.100000
241.966141	154.840000
242.058929	153.960000
242.151718	154.420000
242.244507	154.820000
242.337311	154.000000
242.430099	154.720000
242.522903	155.140000
242.615692	154.800000
242.708481	154.560000
242.801270	155.320000
242.894073	154.840000
242.986862	154.700000
243.079651	155.380000
243.172455	155.240000
243.265244	155.220000
243.358063	154.700000
243.450867	155.020000
243.543655	154.760000
243.636459	154.940000
243.729263	155.120000
243.822067	155.680000
243.914856	155.760000
244.007660	155.720000
244.100464	155.680000
244.193268	154.800000
244.286072	154.780000
244.378876	154.200000
244.471680	153.880000
244.564499	154.400000
244.657318	155.660000
244.750122	155.500000
244.842926	155.100000
244.935745	155.780000
245.028549	154.940000
245.121368	153.900000
245.214172	154.360000
245.306992	155.060000
245.399796	154.340000
245.492615	154.460000
245.585434	154.620000
245.678253	154.540000
245.771072	154.380000
245.863892	154.900000
245.956711	155.500000
246.049530	155.460000
246.142349	155.020000
246.235168	155.060000
246.327988	155.420000
246.420807	154.820000
246.513626	155.000000
246.606445	154.880000
246.699280	154.920000
246.792099	154.400000
246.884918	154.500000
246.977753	154.180000
247.070587	154.400000
247.163422	154.420000
247.256241	154.520000
247.349075	154.780000
247.441895	154.940000
247.534729	154.660000
247.627563	154.260000
247.720383	154.740000
247.813217	154.300000
247.906052	153.980000
247.998886	154.240000
248.091736	154.280000
248.184570	153.720000
248.277405	153.780000
248.370239	154.780000
248.463074	155.940000
248.555908	156.220000
248.648743	156.220000
248.741592	156.840000
248.834427	156.200000
248.927261	154.740000
249.020111	155.400000
249.112946	155.900000
249.205795	154.960000
249.298630	155.000000
249.391495	155.360000
249.484344	154.840000
249.577179	154.680000
249.670029	155.300000
249.762878	155.880000
249.855728	156.100000
249.948563	156.180000
250.041412	155.480000
250.134262	155.680000
250.227112	155.540000
250.319962	155.620000
250.412827	155.500000
250.505692	155.280000
250.598541	155.280000
250.691391	154.760000
250.784241	154.580000
250.877106	154.820000
250.969955	155.100000
251.062805	155.500000
251.155670	156.260000
251.248520	155.840000
251.341385	156.020000
251.434235	155.780000
251.527100	155.120000
251.619965	154.560000
251.712814	155.460000
251.805695	154.980000
251.898560	155.540000
251.991425	155.620000
252.084290	155.540000
252.177155	154.820000
252.270020	154.760000
252.362885	154.480000
252.455750	154.500000
252.548615	154.420000
252.641479	154.340000
252.734360	154.280000
252.827240	154.000000
252.920105	154.120000
253.012970	154.000000
253.105850	153.880000
253.198715	153.920000
253.291595	154.420000
253.384460	153.760000
253.477341	153.800000
253.570221	154.400000
253.663086	154.100000
253.755966	154.960000
253.848846	155.480000
253.941727	155.900000
254.034592	155.520000
254.127472	155.380000
254.220367	154.760000
254.313248	154.840000
254.406128	153.980000
254.499008	154.220000
254.591904	155.400000
254.684784	155.400000
254.777664	155.300000
254.870544	155.260000
254.963440	155.120000
255.056335	154.480000
255.149216	154.360000
255.242111	154.880000
255.334991	155.600000
255.427887	155.420000
255.520767	155.600000
255.613663	155.720000
255.706558	155.100000
255.799438	154.300000
255.892334	154.000000
255.985229	153.860000
256.078125	153.940000
256.171021	153.860000
256.263916	154.780000
256.356812	155.420000
256.449707	155.420000
256.542603	155.020000
256.635498	155.760000
256.728394	155.280000
256.821289	154.760000
256.914215	155.180000
257.007080	155.180000
257.100006	154.860000
257.192932	155.520000
257.285828	156.040000
257.378723	155.380000
257.471619	155.340000
257.564545	154.860000
257.657440	154.920000
257.750336	155.340000
257.843262	155.240000
257.936157	156.620000
258.029053	157.220000
258.121979	157.040000
258.214874	156.560000
258.307800	156.680000
258.400696	155.300000
258.493622	154.720000
258.586517	153.940000
258.679443	154.240000
258.772339	153.980000
258.865265	154.140000
258.958160	153.900000
259.051086	154.800000
259.144012	154.440000
259.236938	155.500000
259.329834	155.340000
259.422791	155.420000
259.515717	154.900000
259.608612	154.620000
259.701538	154.160000
259.794464	153.880000
259.887390	154.120000
259.980316	154.000000
260.073212	154.000000
260.166138	153.220000
260.259064	153.840000
260.351990	154.160000
260.444916	154.280000
260.537842	154.940000
260.630768	156.000000
260.723694	155.740000
260.816620	155.640000
260.909546	155.520000
261.002472	155.060000
261.095398	154.140000
261.188354	154.140000
261.281281	153.900000
261.374207	154.080000
261.467133	154.640000
261.560089	155.440000
261.653015	155.280000
261.745972	155.880000
261.838867	156.300000
261.931824	156.500000
262.024780	155.540000
262.117706	155.960000
262.210663	155.920000
262.303589	155.360000
262.396515	155.120000
262.489471	156.380000
262.582397	155.680000
262.675354	155.000000
262.768280	155.240000
262.861237	154.920000
262.954163	154.460000
263.047119	154.980000
263.140045	154.900000
263.233002	154.920000
263.325958	154.880000
263.418884	154.220000
263.511841	154.080000
263.604797	154.500000
263.697723	154.300000
263.790680	154.160000
263.883636	155.020000
263.976593	154.900000
264.069550	154.860000
264.162476	154.800000
264.255463	154.780000
264.348419	154.540000
264.441376	155.220000
264.534332	154.620000
264.627289	154.840000
264.720245	155.560000
264.813202	155.040000
264.906158	154.580000
264.999115	155.460000
265.092072	155.340000
265.185028	155.640000
265.277985	156.200000
265.370941	156.320000
265.463898	156.000000
265.556854	156.020000
265.649811	154.720000
265.742798	154.420000
265.835754	154.240000
265.928711	154.780000
266.021667	154.780000
266.114655	155.360000
266.207611	155.760000
266.300568	155.400000
266.393585	154.640000
266.486511	154.740000
266.579498	153.720000
266.672485	153.340000
266.765442	153.420000
266.858429	154.040000
266.951385	153.440000
267.044342	154.000000
267.137329	154.160000
267.230316	154.420000
267.323273	153.600000
267.416260	154.480000
267.509216	154.560000
267.602203	154.380000
267.695160	155.020000
267.788147	155.060000
267.881134	154.180000
267.974091	154.300000
268.067078	154.220000
268.160065	153.520000
268.253052	153.900000
268.346008	154.300000
268.438995	154.280000
268.531982	154.700000
268.624969	154.560000
268.717987	154.960000
268.810944	154.860000
268.903961	155.320000
268.996948	154.740000
269.089905	155.300000
269.182892	155.120000
269.275879	155.540000
269.368866	154.820000
269.461853	155.560000
269.554871	155.420000
269.647858	155.260000
269.740845	155.540000
269.833832	155.760000
269.926819	155.180000
270.019806	155.200000
270.112793	154.840000
270.205811	154.720000
270.298798	154.840000
270.391785	155.200000
270.484772	154.960000
270.577789	155.160000
270.670776	154.560000
270.763763	154.400000
270.856750	154.360000
270.949768	154.000000
271.042786	154.020000
271.135773	154.140000
271.228790	154.820000
271.321808	154.320000
271.414795	154.380000
271.507782	153.920000
271.600800	153.700000
271.693817	153.240000
271.786804	154.080000
271.879822	154.420000
271.972809	154.860000
272.065826	155.560000
272.158844	155.020000
272.251831	155.520000
272.344849	155.500000
272.437866	155.280000
272.530853	155.000000
272.623871	155.320000
272.716888	153.980000
272.809906	154.400000
272.902893	154.460000
272.995911	154.260000
273.088928	154.260000
273.181946	154.540000
273.274963	153.960000
273.367981	153.840000
273.460999	153.980000
273.554047	154.720000
273.647003	155.500000
273.740051	155.520000
273.833069	156.400000
273.926086	156.460000
274.019135	155.760000
274.112152	154.960000
274.205170	155.080000
274.298187	154.780000
274.391205	154.400000
274.484222	154.380000
274.577240	154.120000
274.670258	154.060000
274.763306	153.820000
274.856323	154.380000
274.949341	154.400000
275.042358	155.320000
275.135406	155.280000
275.228424	155.200000
275.321442	154.920000
275.414490	154.940000
275.507507	155.200000
275.600525	155.540000
275.693573	155.220000
275.786591	155.020000
275.879669	155.260000
275.972656	154.800000
276.065735	154.400000
276.158752	155.400000
276.251801	156.100000
276.344818	156.100000
276.437866	155.900000
276.530884	155.880000
276.623932	154.720000
276.716980	154.580000
276.809998	154.400000
276.903046	154.440000
276.996094	155.200000
277.089111	156.020000
277.182159	156.520000
277.275208	156.520000
277.368256	156.380000
277.461304	155.940000
277.554321	155.220000
277.647369	155.020000
277.740417	154.940000
277.833466	154.780000
277.926514	154.700000
278.019562	155.500000
278.112610	154.860000
278.205688	154.980000
278.298706	155.220000
278.391785	154.920000
278.484833	154.400000
278.577881	154.180000
278.670929	154.480000
278.763977	154.600000
278.857025	155.000000
278.950073	155.140000
279.043121	155.200000
279.136169	155.100000
279.229248	154.740000
279.322296	154.820000
279.415344	154.680000
279.508392	154.620000
279.601440	154.300000
279.694519	154.500000
279.787567	154.420000
279.880615	154.300000
279.973694	154.420000
280.066742	154.800000
280.159790	154.960000
280.252869	154.480000
280.345917	154.940000
280.438995	154.940000
280.532074	154.760000
280.625122	154.840000
280.718201	155.960000
280.811279	155.660000
280.904327	155.460000
280.997406	155.460000
281.090454	155.380000
281.183533	154.180000
281.276581	154.020000
281.369659	153.840000
281.462738	153.780000
281.555786	153.860000
281.648865	154.180000
281.741943	154.380000
281.835022	155.100000
281.928070	155.000000
282.021149	154.700000
282.114227	154.980000
282.207306	154.640000
282.300385	154.780000
282.393433	154.980000
282.486511	155.300000
282.579590	155.680000
282.672668	156.440000
282.765747	155.800000
282.858856	155.260000
282.951904	155.140000
283.045013	154.700000
283.138062	154.640000
283.231171	155.200000
283.324249	156.020000
283.417328	156.040000
283.510406	155.700000
283.603485	155.400000
283.696564	154.940000
283.789642	154.740000
283.882751	154.820000
283.975830	155.720000
284.068909	155.160000
284.161987	156.020000
284.255066	155.400000
284.348175	155.180000
284.441254	154.540000
284.534332	155.420000
284.627441	154.660000
284.720520	154.820000
284.813599	154.940000
284.906708	154.900000
284.999786	154.160000
285.092896	153.960000
285.185974	154.940000
285.279053	154.580000
285.372192	154.760000
285.465240	155.540000
285.558380	155.760000
285.651459	154.940000
285.744568	155.720000
285.837677	155.620000
285.930756	155.340000
286.023865	155.460000
286.116943	155.080000
286.210052	154.900000
286.303162	154.660000
286.396240	154.540000
286.489349	154.260000
286.582458	154.820000
286.675568	154.880000
286.768646	155.280000
286.861755	155.560000
286.954865	156.700000
287.047974	156.180000
287.141083	155.800000
287.234161	155.380000
287.327271	155.220000
287.420380	154.900000
287.513519	155.140000
287.606598	154.860000
287.699738	155.320000
287.792816	155.220000
287.885956	154.840000
287.979034	154.780000
288.072174	155.120000
288.165283	154.920000
288.258392	155.060000
288.351501	154.740000
288.444611	154.720000
288.537720	155.080000
288.630859	154.880000
288.723969	155.320000
288.817078	155.720000
288.910187	156.160000
289.003296	155.500000
289.096436	155.220000
289.189545	154.720000
289.282654	154.120000
289.375763	154.020000
289.468903	154.820000
289.562012	155.300000
289.655121	155.480000
289.748260	155.960000
289.841400	156.440000
289.934509	156.020000
290.027649	156.180000
290.120728	155.820000
290.213898	155.680000
290.306976	155.200000
290.400146	155.100000
290.493256	154.600000
290.586395	154.680000
290.679535	155.040000
290.772644	154.880000
290.865784	154.340000
290.958893	154.320000
291.052032	154.040000
291.145172	153.720000
291.238281	153.420000
291.331421	153.640000
291.424561	154.420000
291.517670	154.740000
291.610809	154.840000
291.703949	155.060000
291.797089	155.500000
291.890228	154.920000
291.983337	154.880000
292.076477	154.600000
292.169617	154.660000
292.262756	154.280000
292.355927	154.160000
292.449036	154.000000
292.542206	154.200000
292.635315	154.560000
292.728485	155.060000
292.821625	155.060000
292.914764	156.040000
293.007904	156.120000
293.101044	156.000000
293.194183	155.740000
293.287323	155.620000
293.380463	154.880000
293.473602	154.520000
293.566742	154.800000
293.659882	155.340000
293.753021	155.640000
293.846191	155.380000
293.939331	155.060000
294.032471	154.460000
294.125610	154.120000
294.218781	154.800000
294.311920	155.380000
294.405060	156.120000
294.498230	156.200000
294.591370	156.000000
294.684540	154.720000
294.777679	153.860000
294.870850	153.920000
294.963959	153.740000
295.057159	153.520000
295.150299	154.420000
295.243469	155.040000
295.336609	154.280000
295.429779	154.560000
295.522919	155.060000
295.616089	154.920000
295.709229	155.300000
295.802399	155.620000
295.895569	155.340000
295.988708	155.120000
296.081879	155.160000
296.175018	154.560000
296.268188	154.800000
296.361359	155.320000
296.454529	155.400000
296.547668	155.380000
296.640839	155.700000
296.734009	155.400000
296.827179	155.240000
296.920319	155.360000
297.013519	154.900000
297.106659	155.000000
297.199860	154.820000
297.292999	154.940000
297.386200	154.240000
297.479309	154.320000
297.572510	153.780000
297.665680	153.800000
297.758850	153.840000
297.852020	154.260000
297.945190	154.460000
298.038361	154.480000
298.131531	155.760000
298.224701	155.200000
298.317871	154.820000
298.411072	154.240000
298.504242	154.300000
298.597412	153.460000
298.690582	153.960000
298.783752	153.980000
298.876923	154.680000
298.970093	154.740000
299.063293	154.940000
299.156464	155.200000
299.249634	155.820000
299.342834	155.760000
299.436005	156.080000
299.529205	155.780000
299.622345	155.560000
299.715576	154.420000
299.808716	154.380000
299.901917	154.200000
299.995117	154.700000
300.088287	154.940000
300.181488	155.520000
300.274658	155.240000
300.367828	155.340000
300.461029	155.140000
300.554199	155.260000
300.647400	155.520000
300.740601	156.100000
300.833771	155.740000
300.926971	155.760000
301.020142	155.220000
301.113342	154.840000
301.206512	154.500000
301.299713	155.000000
301.392914	154.900000
301.486084	155.160000
301.579285	155.500000
301.672516	156.060000
301.765686	155.620000
301.858887	155.540000
301.952057	155.180000
302.045288	154.980000
302.138458	154.520000
302.231659	154.460000
302.324860	154.420000
302.418060	154.320000
302.511261	154.280000
302.604462	154.400000
302.697662	154.300000
302.790863	154.020000
302.884064	153.940000
302.977264	154.120000
303.070465	154.180000
303.163666	155.160000
303.256866	155.760000
303.350067	155.880000
303.443268	156.140000
303.536469	156.460000
303.629669	155.660000
303.722870	155.560000
303.816071	155.460000
303.909271	155.120000
304.002472	154.380000
304.095673	154.120000
304.188934	153.540000
304.282104	154.640000
304.375336	154.520000
304.468506	154.280000
304.561768	154.680000
304.654968	155.320000
304.748169	154.600000
304.841370	154.480000
304.934601	155.020000
305.027802	154.360000
305.121002	153.700000
305.214233	153.840000
305.307434	154.000000
305.400665	154.660000
305.493866	154.880000
305.587097	155.440000
305.680298	155.280000
305.773499	155.680000
305.866730	155.220000
305.959930	155.920000
306.053162	155.860000
306.146393	155.600000
306.239594	154.980000
306.332825	154.900000
306.426025	154.880000
306.519287	154.660000
306.612488	154.800000
306.705719	154.900000
306.798920	155.040000
306.892181	154.320000
306.985352	153.880000
307.078613	153.520000
307.171844	153.980000
307.265045	153.160000
307.358276	153.340000
307.451508	153.900000
307.544739	154.520000
307.637970	154.140000
307.731201	154.300000
307.824402	155.080000
307.917633	155.180000
308.010864	155.480000
308.104095	156.020000
308.197327	156.360000
308.290558	155.960000
308.383789	155.500000
308.477020	155.120000
308.570251	154.240000
308.663483	154.100000
308.756714	154.000000
308.849976	154.160000
308.943176	154.280000
309.036438	154.260000
309.129639	154.040000
309.222900	154.120000
309.316101	154.260000
309.409393	153.560000
309.502625	153.680000
309.595856	153.940000
309.689087	153.800000
309.782318	153.480000
309.875580	153.900000
309.968811	154.240000
310.062042	154.060000
310.155273	154.180000
310.248535	155.040000
310.341766	154.780000
310.434998	154.240000
310.528259	154.140000
310.621490	154.280000
310.714722	153.340000
310.807983	153.800000
310.901215	154.280000
310.994476	154.480000
311.087708	154.180000
311.181000	154.380000
311.274200	153.700000
311.367462	153.600000
311.460693	153.300000
311.553986	153.940000
311.647186	154.500000
311.740479	155.280000
311.833710	154.880000
311.926971	155.100000
312.020203	154.320000
312.113464	153.960000
312.206726	153.440000
312.299957	154.180000
312.393219	154.440000
312.486481	154.600000
312.579712	154.500000
312.672974	154.800000
312.766235	154.240000
312.859497	154.020000
312.952759	154.040000
313.045990	155.120000
313.139252	154.240000
313.232513	155.060000
313.325775	155.160000
313.419037	155.200000
313.512299	153.860000
313.605530	155.000000
313.698822	154.700000
313.792053	154.880000
313.885345	154.260000
313.978577	154.580000
314.071869	154.000000
314.165131	154.060000
314.258392	154.160000
314.351654	154.680000
314.444916	154.100000
314.538177	154.640000
314.631439	154.900000
314.724701	154.560000
314.817993	154.240000
314.911255	154.700000
315.004517	154.300000
315.097778	153.640000
315.191040	154.360000
315.284302	154.860000
315.377594	154.620000
315.470856	154.620000
315.564117	154.560000
315.657379	153.660000
315.750671	153.440000
315.843933	154.220000
315.937195	153.660000
316.030518	153.460000
316.123749	153.440000
316.217041	154.120000
316.310303	153.760000
316.403595	154.400000
316.496857	154.920000
316.590149	155.360000
316.683411	154.520000
316.776703	154.220000
316.869965	154.160000
316.963257	153.940000
317.056519	153.020000
317.149811	153.120000
317.243073	153.160000
317.336365	153.240000
317.429626	153.660000
317.522919	154.720000
317.616180	154.880000
317.709473	154.760000
317.802765	154.640000
317.896027	154.380000
317.989319	154.640000
318.082611	154.380000
318.175873	154.720000
318.269165	154.660000
318.362488	154.720000
318.455750	154.080000
318.549042	154.560000
318.642303	154.700000
318.735626	154.380000
318.828888	154.400000
318.922211	154.220000
319.015472	154.660000
319.108765	153.980000
319.202057	154.060000
319.295349	154.180000
319.388641	154.520000
319.481934	153.900000
319.575226	154.040000
319.668518	154.480000
319.761810	154.660000
319.855103	154.660000
319.948395	154.880000
320.041687	155.040000
320.134979	154.740000
320.228271	154.360000
320.321564	154.060000
320.414856	153.660000
320.508148	153.360000
320.601440	153.420000
320.694763	153.060000
320.788025	153.960000
320.881348	154.460000
320.974640	154.660000
321.067963	154.040000
321.161224	154.600000
321.254547	153.720000
321.347839	154.080000
321.441162	154.060000
321.534454	154.900000
321.627747	154.660000
321.721069	155.360000
321.814362	155.200000
321.907654	155.560000
322.000946	155.620000
322.094269	156.580000
322.187561	156.220000
322.280884	156.460000
322.374176	156.240000
322.467468	156.400000
322.560791	155.720000
322.654083	155.980000
322.747406	155.800000
322.840698	156.080000
322.934021	156.260000
323.027344	156.640000
323.120636	156.340000
323.213959	155.980000
323.307251	155.440000
323.400574	154.740000
323.493866	154.000000
323.587219	154.340000
323.680511	154.620000
323.773834	154.880000
323.867157	155.020000
323.960449	155.520000
324.053772	154.820000
324.147095	154.800000
324.240387	155.040000
324.333710	155.020000
324.427032	154.720000
324.520355	155.000000
324.613647	154.440000
324.706970	154.220000
324.800293	154.160000
324.893616	154.560000
324.986938	155.000000
325.080231	154.920000
325.173553	155.260000
325.266876	155.940000
325.360199	155.980000
325.453522	155.060000
325.546875	155.200000
325.640167	155.600000
325.733521	155.580000
325.826813	155.660000
325.920166	155.620000
326.013489	155.420000
326.106812	154.400000
326.200134	153.600000
326.293457	152.720000
326.386780	153.240000
326.480103	153.220000
326.573425	153.200000
326.666748	153.540000
326.760071	154.220000
326.853424	154.260000
326.946747	154.400000
327.040070	155.360000
327.133392	154.980000
327.226715	154.220000
327.320068	153.900000
327.413391	154.520000
327.506714	153.760000
327.600037	153.900000
327.693390	154.220000
327.786713	154.220000
327.880066	154.220000
327.973358	154.680000
328.066742	155.540000
328.160034	155.920000
328.253418	156.220000
328.346710	155.600000
328.440063	154.980000
328.533417	154.140000
328.626740	154.120000
328.720093	154.000000
328.813416	154.140000
328.906769	154.360000
329.000092	154.680000
329.093445	154.660000
329.186768	154.500000
329.280121	155.120000
329.373444	155.520000
329.466797	155.540000
329.560120	155.380000
329.653473	155.420000
329.746796	154.820000
329.840149	154.400000
329.933502	154.200000
330.026825	154.020000
330.120178	154.120000
330.213562	154.080000
330.306854	154.220000
330.400238	154.520000
330.493561	154.320000
330.586945	155.020000
330.680237	155.280000
330.773621	155.060000
330.866974	155.140000
330.960327	155.880000
331.053680	155.680000
331.147003	155.480000
331.240356	155.900000
331.333710	155.680000
331.427063	155.320000
331.520416	154.860000
331.613770	154.760000
331.707123	154.520000
331.800476	154.740000
331.893829	155.320000
331.987152	155.540000
332.080505	155.660000
332.173859	155.600000
332.267212	155.040000
332.360565	154.380000
332.453918	153.780000
332.547333	153.640000
332.640656	153.800000
332.734039	153.880000
332.827362	153.860000
332.920746	154.480000
333.014069	154.840000
333.107452	155.180000
333.200806	155.560000
333.294159	155.800000
333.387543	155.340000
333.480896	154.900000
333.574249	154.620000
333.667603	154.280000
333.760956	154.320000
333.854340	154.260000
333.947693	154.520000
334.041046	154.760000
334.134430	155.040000
334.227783	154.580000
334.321136	154.640000
334.414520	154.280000
334.507874	154.160000
334.601227	154.020000
334.694611	154.300000
334.787964	154.580000
334.881348	154.780000
334.974701	154.260000
335.068085	153.960000
335.161438	154.320000
335.254822	154.080000
335.348175	154.360000
335.441559	154.380000
335.534943	155.420000
335.628296	155.080000
335.721680	155.300000
335.815033	155.160000
335.908417	155.580000
336.001770	155.260000
336.095154	155.200000
336.188538	154.700000
336.281891	154.140000
336.375275	153.780000
336.468658	153.280000
336.562012	153.260000
336.655396	153.900000
336.748779	154.620000
336.842133	154.940000
336.935516	155.080000
337.028900	154.940000
337.122284	154.740000
337.215637	154.500000
337.309021	154.500000
337.402435	154.380000
337.495789	154.260000
337.589203	154.240000
337.682526	154.100000
337.775940	154.320000
337.869324	154.500000
337.962708	154.260000
338.056091	154.920000
338.149475	154.420000
338.242859	154.460000
338.336243	154.060000
338.429626	154.520000
338.523010	153.900000
338.616394	154.060000
338.709778	153.580000
338.803162	153.720000
338.896545	153.580000
338.989929	153.320000
339.083313	153.820000
339.176697	153.720000
339.270081	153.580000
339.363464	154.160000
339.456848	154.720000
339.550232	154.320000
339.643616	154.420000
339.737030	154.540000
339.830383	154.040000
339.923828	154.100000
340.017181	154.380000
340.110596	154.460000
340.203949	154.540000
340.297363	154.380000
340.390778	154.140000
340.484161	154.220000
340.577545	154.140000
340.670959	154.000000
340.764343	153.940000
340.857727	153.860000
340.951111	153.540000
341.044525	153.800000
341.137909	153.740000
341.231293	154.020000
341.324707	153.800000
341.418091	154.500000
341.511505	154.540000
341.604889	155.080000
341.698303	154.920000
341.791687	154.980000
341.885071	154.560000
341.978485	153.980000
342.071899	153.980000
342.165283	154.160000
342.258698	154.540000
342.352081	154.800000
342.445496	155.940000
342.538879	155.620000
342.632324	155.280000
342.725708	155.180000
342.819122	154.680000
342.912506	153.880000
343.005920	153.880000
343.099335	154.920000
343.192719	154.740000
343.286133	154.720000
343.379547	154.960000
343.472931	155.060000
343.566345	154.220000
343.659760	154.600000
343.753143	154.340000
343.846558	153.960000
343.939972	153.600000
344.033386	154.440000
344.126770	153.760000
344.220184	154.280000
344.313599	154.780000
344.407043	155.360000
344.500427	154.400000
344.593872	155.380000
344.687225	155.120000
344.780670	154.500000
344.874054	154.560000
344.967499	155.180000
345.060913	154.760000
345.154327	154.760000
345.247742	154.760000
345.341156	154.060000
345.434570	153.580000
345.527985	153.180000
345.621399	153.340000
345.714813	153.500000
345.808228	154.180000
345.901642	154.020000
345.995056	153.880000
346.088470	154.060000
346.181885	154.240000
346.275299	153.580000
346.368713	153.280000
346.462128	153.560000
346.555573	153.360000
346.648987	153.460000
346.742401	153.320000
346.835815	154.360000
346.929260	154.280000
347.022644	154.400000
347.116119	154.500000
347.209503	155.020000
347.302948	155.660000
347.396362	156.260000
347.489807	156.520000
347.583221	156.860000
347.676636	156.660000
347.770050	155.060000
347.863495	154.260000
347.956909	154.100000
348.050323	153.220000
348.143768	153.320000
348.237183	153.400000
348.330597	153.860000
348.424042	153.920000
348.517456	154.800000
348.610901	155.080000
348.704315	155.360000
348.797760	155.100000
348.891174	154.460000
348.984619	153.440000
349.078033	153.660000
349.171448	154.420000
349.264923	154.520000
349.358337	154.540000
349.451782	155.200000
349.545197	154.380000
349.638641	153.600000
349.732086	152.980000
349.825500	153.780000
349.918945	153.120000
350.012390	153.760000
350.105804	154.080000
350.199249	154.620000
350.292664	154.860000
350.386108	155.460000
350.479553	155.560000
350.572968	155.300000
350.666412	155.320000
350.759857	154.940000
350.853302	155.340000
350.946716	154.840000
351.040161	154.860000
351.133606	154.880000
351.227081	154.580000
351.320465	155.080000
351.413940	155.540000
351.507355	155.840000
351.600830	155.760000
351.694244	155.800000
351.787720	155.300000
351.881104	155.160000
351.974579	155.000000
352.067993	155.740000
352.161469	156.020000
352.254883	155.500000
352.348358	155.380000
352.441803	155.500000
352.535248	155.160000
352.628693	155.360000
352.722137	155.140000
352.815582	155.380000
352.909027	155.360000
353.002472	154.920000
353.095917	154.600000
353.189362	155.180000
353.282806	154.900000
353.376251	154.720000
353.469696	154.320000
353.563141	154.900000
353.656586	154.500000
353.750061	153.840000
353.843475	153.640000
353.936981	154.580000
354.030396	153.680000
354.123871	153.780000
354.217285	155.040000
354.310760	155.560000
354.404175	155.220000
354.497681	155.040000
354.591095	155.140000
354.684570	153.920000
354.777985	153.180000
354.871490	152.820000
354.964935	153.680000
355.058380	153.800000
355.151855	153.980000
355.245300	154.860000
355.338745	155.460000
355.432220	155.100000
355.525665	154.480000
355.619110	154.880000
355.712585	154.620000
355.806030	154.340000
355.899475	154.060000
355.992950	154.520000
356.086426	155.120000
356.179871	154.960000
356.273346	155.040000
356.366791	155.360000
356.460266	155.580000
356.553711	154.620000
356.647186	154.460000
356.740631	154.040000
356.834106	153.380000
356.927551	153.540000
357.021027	153.760000
357.114471	153.960000
357.207947	154.400000
357.301422	155.320000
357.394867	155.180000
357.488342	155.620000
357.581818	155.780000
357.675262	155.920000
357.768738	155.540000
357.862213	154.800000
357.955658	154.940000
358.049133	154.700000
358.142609	154.740000
358.236053	154.320000
358.329529	154.940000
358.423035	155.080000
358.516449	154.760000
358.609955	155.220000
358.703400	156.300000
358.796906	156.140000
358.890350	155.300000
358.983826	156.160000
359.077271	155.140000
359.170776	154.560000
359.264221	154.300000
359.357727	154.720000
359.451172	154.800000
359.544647	155.080000
359.638123	154.940000
359.731598	155.500000
359.825073	155.820000
359.918549	155.720000
360.012024	156.080000
360.105499	155.820000
360.198975	155.480000
360.292450	155.260000
360.385925	154.920000
360.479401	154.180000
360.572876	154.840000
360.666351	155.240000
360.759857	154.980000
360.853302	155.000000
360.946808	154.880000
361.040253	154.520000
361.133759	154.140000
361.227203	154.100000
361.320709	153.580000
361.414154	154.320000
361.507660	154.540000
361.601105	155.000000
361.694641	155.740000
361.788086	155.660000
361.881592	155.900000
361.975067	155.300000
362.068542	155.420000
362.162018	155.160000
362.255524	155.380000
362.348999	155.100000
362.442474	155.680000
362.535950	154.980000
362.629456	154.680000
362.722931	154.720000
362.816406	154.920000
362.909882	155.080000
363.003387	155.080000
363.096863	155.580000
363.190338	155.620000
363.283875	155.400000
363.377319	155.200000
363.470825	155.680000
363.564301	154.820000
363.657806	155.020000
363.751282	154.480000
363.844788	155.460000
363.938232	154.780000
364.031769	155.520000
364.125214	155.260000
364.218750	156.140000
364.312225	154.600000
364.405731	154.980000
364.499207	154.380000
364.592712	154.300000
364.686188	153.980000
364.779694	154.420000
364.873169	154.340000
364.966675	154.160000
365.060150	154.020000
365.153656	154.340000
365.247131	154.340000
365.340637	154.660000
365.434143	155.480000
365.527618	156.100000
365.621155	155.120000
365.714600	155.280000
365.808136	155.140000
365.901611	154.140000
365.995117	153.560000
366.088593	153.520000
366.182129	153.040000
366.275604	153.060000
366.369110	153.400000
366.462585	153.580000
366.556122	154.360000
366.649567	154.560000
366.743103	154.420000
366.836609	154.320000
366.930115	154.500000
367.023590	154.580000
367.117096	154.340000
367.210602	154.240000
367.304108	155.060000
367.397614	155.840000
367.491119	155.860000
367.584595	156.280000
367.678101	156.520000
367.771606	155.980000
367.865112	155.300000
367.958649	154.700000
368.052124	154.660000
368.145660	154.600000
368.239136	154.900000
368.332672	154.900000
368.426147	155.260000
368.519684	155.100000
368.613159	155.380000
368.706696	154.940000
368.800171	154.960000
368.893707	154.580000
368.987183	154.720000
369.080719	154.400000
369.174225	154.240000
369.267731	154.200000
369.361237	154.600000
369.454742	154.560000
369.548248	155.180000
369.641754	155.140000
369.735260	155.100000
369.828766	154.280000
369.922272	154.660000
370.015808	153.900000
370.109314	153.620000
370.202820	153.320000
370.296356	154.580000
370.389832	154.280000
370.483368	154.280000
370.576874	154.440000
370.670410	154.620000
370.763885	153.640000
370.857422	153.420000
370.950928	153.360000
371.044464	154.740000
371.137939	154.840000
371.231476	155.420000
371.324982	156.000000
371.418518	156.280000
371.512024	155.500000
371.605560	155.340000
371.699066	155.220000
371.792572	154.900000
371.886108	155.120000
371.979614	154.660000
372.073120	155.140000
372.166656	155.240000
372.260162	155.280000
372.353668	154.960000
372.447205	155.140000
372.540710	154.880000
372.634277	154.680000
372.727753	154.840000
372.821320	154.700000
372.914795	154.640000
373.008362	154.620000
373.101837	154.900000
373.195404	154.360000
373.288879	154.340000
373.382446	155.240000
373.475922	155.180000
373.569489	155.740000
373.662964	156.200000
373.756531	156.460000
373.850037	156.060000
373.943573	155.760000
374.037109	154.540000
374.130615	154.880000
374.224152	154.880000
374.317657	154.480000
374.411194	155.900000
374.504730	156.040000
374.598236	155.600000
374.691772	155.440000
374.785309	155.760000
374.878815	154.440000
374.972351	155.080000
375.065887	154.800000
375.159454	155.420000
375.252930	154.880000
375.346497	155.360000
375.440002	155.680000
375.533569	155.780000
375.627045	155.000000
375.720612	155.340000
375.814117	155.440000
375.907684	154.580000
376.001160	154.260000
376.094727	153.900000
376.188232	154.520000
376.281799	154.460000
376.375336	154.900000
376.468872	156.040000
376.562408	156.680000
376.655914	156.100000
376.749451	155.980000
376.842987	156.080000
376.936523	155.240000
377.030060	155.220000
377.123596	155.640000
377.217133	155.100000
377.310669	155.220000
377.404205	156.040000
377.497772	156.380000
377.591278	155.700000
377.684845	156.800000
377.778351	156.860000
377.871918	156.020000
377.965424	155.160000
378.058990	155.300000
378.152496	154.620000
378.246063	154.440000
378.339569	154.900000
378.433136	155.180000
378.526642	155.380000
378.620209	155.320000
378.713745	155.100000
378.807312	155.520000
378.900848	155.340000
378.994385	155.480000
379.087921	154.960000
379.181458	155.380000
379.274994	154.060000
379.368530	154.360000
379.462097	154.300000
379.555634	155.040000
379.649170	154.060000
379.742706	154.720000
379.836273	154.640000
379.929810	154.140000
380.023376	153.740000
380.116882	154.060000
380.210449	153.740000
380.303986	153.320000
380.397552	153.100000
380.491058	153.080000
380.584656	152.720000
380.678162	152.820000
380.771729	153.420000
380.865265	154.540000
380.958832	154.640000
381.052368	154.980000
381.145935	155.620000
381.239471	155.660000
381.333008	155.160000
381.426575	155.400000
381.520111	155.780000
381.613647	155.540000
381.707214	155.220000
381.800751	154.660000
381.894318	154.940000
381.987854	154.620000
382.081421	154.380000
382.174988	154.840000
382.268524	154.880000
382.362091	154.440000
382.455627	155.160000
382.549194	155.140000
382.642731	154.380000
382.736298	154.300000
382.829834	154.200000
382.923401	154.480000
383.016937	154.740000
383.110504	155.480000
383.204041	155.780000
383.297607	156.360000
383.391174	155.460000
383.484741	156.000000
383.578278	155.320000
383.671844	155.080000
383.765411	154.320000
383.858948	154.940000
383.952515	154.320000
384.046051	154.820000
384.139618	155.540000
384.233185	155.940000
384.326721	155.440000
384.420288	155.820000
384.513855	155.720000
384.607422	155.640000
384.700989	155.780000
384.794525	155.200000
384.888123	155.080000
384.981659	155.260000
385.075226	154.760000
385.168762	154.020000
385.262360	154.440000
385.355896	153.720000
385.449463	153.420000
385.542999	153.540000
385.636597	154.780000
385.730164	154.900000
385.823730	154.940000
385.917267	154.680000
386.010834	154.720000
386.104401	154.280000
386.197968	154.760000
386.291534	155.000000
386.385101	155.480000
386.478668	155.860000
386.572235	155.740000
386.665802	155.040000
386.759338	154.980000
386.852905	154.600000
386.946472	154.040000
387.040070	153.900000
387.133606	153.820000
387.227203	153.840000
387.320740	154.260000
387.414337	154.100000
387.507874	154.060000
387.601471	154.440000
387.695007	154.220000
387.788605	153.840000
387.882141	154.160000
387.975739	154.420000
388.069275	154.320000
388.162872	154.660000
388.256439	154.880000
388.350037	154.560000
388.443604	154.160000
388.537170	154.040000
388.630737	154.800000
388.724304	154.800000
388.817871	154.940000
388.911438	155.440000
389.005005	155.540000
389.098602	154.960000
389.192169	154.760000
389.285736	155.280000
389.379333	154.960000
389.472870	154.580000
389.566467	154.380000
389.660034	154.500000
389.753632	153.920000
389.847168	154.120000
389.940765	154.440000
390.034332	154.740000
390.127930	153.980000
390.221466	154.120000
390.315063	153.740000
390.408630	153.120000
390.502228	152.260000
390.595795	152.920000
390.689362	153.060000
390.782959	153.700000
390.876526	154.420000
390.970093	154.520000
391.063690	154.920000
391.157257	155.140000
391.250824	155.180000
391.344421	154.840000
391.437988	155.700000
391.531555	155.640000
391.625153	155.520000
391.718750	155.520000
391.812317	155.640000
391.905914	154.980000
391.999481	154.920000
392.093079	154.820000
392.186615	154.900000
392.280243	154.960000
392.373779	154.960000
392.467407	155.460000
392.560944	155.400000
392.654572	154.720000
392.748108	154.780000
392.841736	155.160000
392.935303	154.340000
393.028900	154.400000
393.122467	154.700000
393.216064	154.180000
393.309631	153.520000
393.403229	153.540000
393.496796	153.440000
393.590393	152.620000
393.683990	153.120000
393.777557	153.980000
393.871155	153.800000
393.964722	154.100000
394.058350	154.780000
394.151917	154.660000
394.245514	154.420000
394.339081	155.400000
394.432678	155.680000
394.526245	155.480000
394.619873	154.960000
394.713409	154.940000
394.807037	154.220000
394.900604	153.880000
394.994202	154.020000
395.087769	154.600000
395.181396	154.320000
395.274994	155.080000
395.368561	154.560000
395.462158	154.620000
395.555756	154.180000
395.649353	154.660000
395.742920	154.100000
395.836517	154.820000
395.930115	153.960000
396.023712	154.320000
396.117279	154.220000
396.210876	153.880000
396.304474	153.720000
396.398071	154.720000
396.491669	155.220000
396.585266	154.940000
396.678833	154.980000
396.772461	155.200000
396.866028	154.760000
396.959656	154.260000
397.053223	154.460000
397.146851	154.360000
397.240417	154.060000
397.334015	154.900000
397.427582	154.700000
397.521210	154.660000
397.614807	155.400000
397.708405	155.940000
397.802002	155.460000
397.895599	156.440000
397.989197	156.520000
398.082794	156.120000
398.176392	156.000000
398.269989	156.320000
398.363586	156.460000
398.457184	157.560000
398.550781	158.120000
398.644379	158.320000
398.737976	158.840000
398.831573	160.200000
398.925201	161.740000
399.018768	166.500000
399.112396	174.000000
399.205963	185.660000
399.299591	203.680000
399.393158	233.540000
399.486786	285.940000
399.580353	382.840000
399.673981	551.440000
399.767578	811.120000
399.861206	1142.260000
399.954773	1486.940000
400.048401	1749.320000
400.141998	1860.880000
400.235596	1784.060000
400.329193	1549.560000
400.422791	1224.360000
400.516418	901.320000
400.610016	634.160000
400.703613	447.280000
400.797211	326.620000
400.890808	255.960000
400.984436	216.340000
401.078033	193.840000
401.171631	180.020000
401.265259	173.540000
401.358826	168.780000
401.452484	165.460000
401.546051	163.760000
401.639679	162.380000
401.733246	160.900000
401.826904	159.960000
401.920471	158.140000
402.014099	157.400000
402.107697	156.800000
402.201324	156.380000
402.294891	156.000000
402.388550	156.780000
402.482147	156.960000
402.575745	156.780000
402.669373	156.600000
402.762970	156.440000
402.856567	155.940000
402.950195	155.780000
403.043793	155.580000
403.137390	156.300000
403.231018	155.580000
403.324615	156.640000
403.418243	155.820000
403.511841	156.360000
403.605469	155.960000
403.699066	156.520000
403.792694	155.740000
403.886292	156.320000
403.979919	156.040000
404.073517	155.640000
404.167145	155.720000
404.260712	155.960000
404.354370	155.560000
404.447937	155.560000
404.541595	155.580000
404.635162	155.900000
404.728821	156.320000
404.822418	156.020000
404.916046	155.600000
405.009644	156.040000
405.103271	156.020000
405.196899	155.000000
405.290497	155.240000
405.384125	155.660000
405.477722	155.120000
405.571350	154.520000
405.664948	155.200000
405.758575	155.060000
405.852203	154.640000
405.945801	154.820000
406.039429	155.040000
406.133057	154.740000
406.226654	154.740000
406.320312	154.800000
406.413879	154.960000
406.507538	155.140000
406.601135	154.800000
406.694763	155.400000
406.788361	155.320000
406.882019	155.200000
406.975586	155.740000
407.069244	156.380000
407.162872	156.100000
407.256470	156.080000
407.350098	155.520000
407.443726	154.780000
407.537323	154.000000
407.630951	154.080000
407.724579	153.900000
407.818207	154.820000
407.911804	154.660000
408.005432	154.700000
408.099060	154.740000
408.192688	155.300000
408.286285	154.700000
408.379913	154.480000
408.473572	154.500000
408.567169	153.820000
408.660828	153.940000
408.754395	153.280000
408.848053	153.580000
408.941650	153.840000
409.035309	153.560000
409.128906	153.360000
409.222565	154.000000
409.316132	153.900000
409.409790	153.760000
409.503387	154.060000
409.597046	154.060000
409.690674	154.240000
409.784302	154.580000
409.877930	154.300000
409.971558	154.880000
410.065186	154.660000
410.158783	154.300000
410.252411	154.160000
410.346039	154.600000
410.439667	154.400000
410.533295	154.780000
410.626923	155.440000
410.720551	154.880000
410.814209	155.740000
410.907806	155.620000
411.001465	154.780000
411.095062	154.760000
411.188721	155.380000
411.282318	154.660000
411.375977	154.380000
411.469574	154.940000
411.563232	154.320000
411.656830	154.080000
411.750488	153.960000
411.844086	153.760000
411.937744	153.880000
412.031372	153.920000
412.125000	153.860000
412.218628	154.200000
412.312256	154.960000
412.405884	155.280000
412.499512	155.060000
412.593170	155.380000
412.686798	155.020000
412.780426	154.500000
412.874054	154.380000
412.967682	154.740000
413.061310	155.280000
413.154968	155.540000
413.248566	155.720000
413.342224	155.480000
413.435852	155.420000
413.529510	154.740000
413.623108	153.740000
413.716766	153.400000
413.810364	153.940000
413.904022	153.800000
413.997650	153.540000
414.091309	154.660000
414.184906	155.100000
414.278564	154.400000
414.372192	154.660000
414.465851	154.860000
414.559479	154.500000
414.653107	155.100000
414.746735	155.280000
414.840393	155.240000
414.934021	155.520000
415.027649	155.160000
415.121277	155.000000
415.214935	155.200000
415.308563	154.940000
415.402191	154.440000
415.495850	154.500000
415.589478	153.860000
415.683136	153.600000
415.776733	154.140000
415.870422	154.660000
415.964020	154.420000
416.057678	154.600000
416.151306	154.760000
416.244965	154.560000
416.338562	154.520000
416.432251	155.440000
416.525848	156.160000
416.619507	156.340000
416.713165	156.460000
416.806793	156.400000
416.900421	156.040000
416.994080	155.340000
417.087708	155.240000
417.181366	155.000000
417.274994	154.900000
417.368622	155.100000
417.462280	155.360000
417.555908	154.940000
417.649567	154.700000
417.743195	154.680000
417.836853	154.560000
417.930481	154.880000
418.024170	155.200000
418.117767	155.880000
418.211426	156.480000
418.305054	156.600000
418.398712	155.820000
418.492340	155.820000
418.585999	155.640000
418.679626	155.060000
418.773285	154.780000
418.866913	155.160000
418.960571	155.420000
419.054230	155.480000
419.147858	155.500000
419.241516	155.960000
419.335144	155.460000
419.428802	155.160000
419.522461	154.820000
419.616089	154.460000
419.709747	154.240000
419.803375	154.580000
419.897034	154.460000
419.990662	154.580000
420.084320	155.220000
420.177979	155.580000
420.271606	155.520000
420.365295	156.260000
420.458893	156.540000
420.552582	156.380000
420.646210	155.900000
420.739868	155.840000
420.833496	155.000000
420.927155	154.040000
421.020782	153.780000
421.114471	153.260000
421.208069	153.460000
421.301758	153.960000
421.395386	154.620000
421.489044	154.460000
421.582703	154.800000
421.676361	155.400000
421.769989	154.880000
421.863647	155.400000
421.957306	155.660000
422.050934	155.960000
422.144592	155.540000
422.238251	155.240000
422.331909	154.800000
422.425537	154.480000
422.519196	154.380000
422.612854	154.020000
422.706543	154.100000
422.800140	154.300000
422.893829	154.100000
422.987457	153.660000
423.081146	153.620000
423.174744	154.440000
423.268433	153.900000
423.362061	154.220000
423.455750	154.380000
423.549347	154.680000
423.643036	153.840000
423.736664	154.780000
423.830353	155.060000
423.924011	155.600000
424.017639	155.260000
424.111298	155.560000
424.204956	154.980000
424.298615	154.820000
424.392273	154.440000
424.485931	154.540000
424.579559	154.840000
424.673218	154.620000
424.766876	154.740000
424.860535	154.520000
424.954193	154.300000
425.047882	154.460000
425.141510	154.620000
425.235199	154.380000
425.328796	154.100000
425.422485	154.280000
425.516113	153.540000
425.609802	153.540000
425.703430	153.920000
425.797119	154.020000
425.890747	154.140000
425.984436	154.520000
426.078064	154.680000
426.171753	154.340000
426.265411	154.500000
426.359070	154.760000
426.452728	154.660000
426.546356	154.460000
426.640015	154.340000
426.733673	154.320000
426.827332	153.860000
426.920990	154.540000
427.014648	154.280000
427.108307	154.620000
427.201965	155.500000
427.295624	156.040000
427.389282	155.740000
427.482941	156.300000
427.576630	156.340000
427.670258	155.460000
427.763947	155.280000
427.857574	155.200000
427.951263	155.360000
428.044922	155.140000
428.138611	155.240000
428.232239	155.320000
428.325928	155.740000
428.419556	155.680000
428.513245	155.600000
428.606903	155.900000
428.700562	155.500000
428.794220	154.420000
428.887878	153.880000
428.981537	154.300000
429.075195	154.460000
429.168854	155.100000
429.262512	155.600000
429.356201	155.860000
429.449860	155.660000
429.543518	155.080000
429.637177	155.180000
429.730835	155.200000
429.824493	155.140000
429.918182	155.200000
430.011810	154.980000
430.105530	153.900000
430.199158	153.880000
430.292847	153.940000
430.386475	153.800000
430.480164	154.040000
430.573792	154.320000
430.667511	154.340000
430.761139	154.480000
430.854828	155.100000
430.948456	155.360000
431.042145	156.040000
431.135834	155.780000
431.229492	155.640000
431.323151	155.660000
431.416809	155.440000
431.510468	154.940000
431.604156	155.140000
431.697815	155.380000
431.791473	154.380000
431.885132	154.480000
431.978821	155.100000
432.072479	155.500000
432.166138	155.600000
432.259827	156.240000
432.353485	156.600000
432.447174	156.560000
432.540802	156.260000
432.634491	156.460000
432.728149	156.700000
432.821838	157.160000
432.915466	156.540000
433.009186	156.680000
433.102814	155.680000
433.196503	155.100000
433.290131	154.520000
433.383850	155.100000
433.477509	154.880000
433.571167	155.920000
433.664856	156.600000
433.758514	157.100000
433.852173	157.000000
433.945862	157.200000
434.039520	156.860000
434.133179	156.040000
434.226868	155.480000
434.320526	154.840000
434.414185	155.560000
434.507874	155.260000
434.601562	155.680000
434.695221	155.460000
434.788910	156.120000
434.882538	155.680000
434.976257	155.740000
435.069885	155.880000
435.163574	156.280000
435.257233	155.640000
435.350922	155.480000
435.444580	155.160000
435.538269	154.820000
435.631897	155.220000
435.725616	156.040000
435.819275	156.640000
435.912964	157.320000
436.006622	157.760000
436.100311	157.280000
436.193970	156.420000
436.287628	155.820000
436.381317	155.560000
436.474976	154.700000
436.568665	154.260000
436.662323	154.760000
436.756012	154.820000
436.849670	154.740000
436.943390	155.280000
437.037018	155.500000
437.130737	155.100000
437.224365	154.860000
437.318085	154.840000
437.411713	154.620000
437.505432	155.060000
437.599060	155.960000
437.692780	156.420000
437.786407	156.600000
437.880127	156.680000
437.973755	156.220000
438.067474	155.400000
438.161133	155.340000
438.254822	155.920000
438.348480	155.820000
438.442169	156.600000
438.535828	157.140000
438.629517	156.700000
438.723175	155.540000
438.816864	156.320000
438.910553	155.340000
439.004211	154.780000
439.097900	154.380000
439.191559	154.900000
439.285248	153.980000
439.378906	154.640000
439.472626	154.680000
439.566284	154.740000
439.659973	154.780000
439.753632	154.920000
439.847321	154.920000
439.940979	154.840000
440.034698	154.920000
440.128326	154.460000
440.222046	154.400000
440.315674	153.300000
440.409393	153.580000
440.503082	153.720000
440.596741	154.120000
440.690430	154.300000
440.784088	154.720000
440.877777	154.180000
440.971466	154.060000
441.065125	153.400000
441.158813	153.180000
441.252502	153.500000
441.346161	153.860000
441.439850	154.500000
441.533539	154.780000
441.627197	154.920000
441.720886	154.500000
441.814606	154.860000
441.908234	154.640000
442.001953	154.860000
442.095612	154.880000
442.189301	155.100000
442.282959	154.820000
442.376678	154.120000
442.470306	154.580000
442.564026	154.560000
442.657684	154.740000
442.751404	154.760000
442.845032	155.920000
442.938751	155.140000
443.032440	155.280000
443.126099	155.100000
443.219788	155.840000
443.313477	155.460000
443.407166	155.660000
443.500824	155.440000
443.594513	155.320000
443.688202	154.580000
443.781891	153.960000
443.875549	153.660000
443.969238	153.720000
444.062927	154.080000
444.156647	153.740000
444.250275	154.380000
444.343994	154.840000
444.437653	154.840000
444.531372	154.780000
444.625031	154.740000
444.718719	154.120000
444.812378	153.900000
444.906097	153.860000
444.999756	153.240000
445.093445	153.520000
445.187103	153.660000
445.280823	154.120000
445.374512	153.840000
445.468201	154.160000
445.561859	154.340000
445.655548	154.460000
445.749237	154.020000
445.842926	154.200000
445.936615	154.680000
446.030304	154.180000
446.123962	154.360000
446.217651	154.160000
446.311340	154.340000
446.405029	153.760000
446.498749	153.800000
446.592407	153.480000
446.686096	153.640000
446.779755	153.620000
446.873474	154.040000
446.967133	154.320000
447.060852	153.980000
447.154510	153.880000
447.248230	153.940000
447.341858	153.900000
447.435577	153.440000
447.529236	153.420000
447.622955	153.280000
447.716644	153.140000
447.810333	153.040000
447.904022	153.660000
447.997711	153.700000
448.091400	154.020000
448.185059	153.880000
448.278748	154.320000
448.372437	154.120000
448.466125	154.700000
448.559814	154.740000
448.653503	155.360000
448.747192	155.200000
448.840912	155.500000
448.934570	155.240000
449.028290	155.600000
449.121948	155.100000
449.215637	154.560000
449.309296	153.980000
449.403015	154.260000
449.496674	153.480000
449.590393	153.540000
449.684052	153.740000
449.777771	154.920000
449.871429	154.200000
449.965149	154.340000
450.058838	154.520000
450.152527	154.960000
450.246216	154.120000
450.339905	154.460000
450.433594	154.280000
450.527283	154.820000
450.620972	154.380000
450.714661	154.680000
450.808350	154.760000
450.902039	155.360000
450.995728	154.760000
451.089417	154.540000
451.183105	154.360000
451.276794	154.940000
451.370514	154.360000
451.464172	153.480000
451.557892	153.720000
451.651550	153.860000
451.745270	153.060000
451.838928	152.880000
451.932648	153.600000
452.026306	153.960000
452.120026	153.480000
452.213684	154.260000
452.307404	154.540000
452.401062	155.000000
452.494781	155.200000
452.588470	155.320000
452.682159	154.540000
452.775848	154.920000
452.869537	153.960000
452.963226	153.140000
453.056915	153.040000
453.150604	153.260000
453.244293	153.060000
453.337982	154.260000
453.431671	154.920000
453.525360	155.440000
453.619049	155.440000
453.712769	155.720000
453.806427	155.040000
453.900146	154.340000
453.993805	154.000000
454.087555	154.420000
454.181213	154.180000
454.274933	154.040000
454.368591	154.220000
454.462311	154.200000
454.555969	153.840000
454.649689	154.800000
454.743347	154.740000
454.837067	155.540000
454.930756	156.260000
455.024445	156.320000
455.118134	155.420000
455.211853	155.960000
455.305542	155.320000
455.399231	154.660000
455.492920	154.660000
455.586609	154.700000
455.680298	154.520000
455.773987	154.220000
455.867676	154.260000
455.961365	154.480000
456.055084	154.500000
456.148773	153.980000
456.242493	154.160000
456.336151	154.420000
456.429871	154.160000
456.523529	154.580000
456.617249	154.780000
456.710907	155.560000
456.804626	155.140000
456.898315	154.700000
456.992035	154.420000
457.085693	154.140000
457.179413	152.740000
457.273102	153.800000
457.366791	154.200000
457.460480	154.420000
457.554199	155.180000
457.647888	155.680000
457.741577	154.860000
457.835266	154.960000
457.928955	155.040000
458.022644	155.080000
458.116364	155.760000
458.210052	155.520000
458.303741	155.540000
458.397461	154.480000
458.491119	153.620000
458.584839	153.500000
458.678528	153.540000
458.772247	153.080000
458.865906	153.680000
458.959625	155.200000
459.053284	154.720000
459.147003	154.620000
459.240692	155.680000
459.334412	155.700000
459.428070	154.740000
459.521790	154.780000
459.615479	154.780000
459.709198	154.760000
459.802887	154.340000
459.896576	154.160000
459.990265	154.600000
460.083954	154.780000
460.177673	153.860000
460.271362	154.260000
460.365051	154.140000
460.458740	153.440000
460.552429	152.800000
460.646149	153.160000
460.739838	152.780000
460.833527	153.140000
460.927246	153.080000
461.020905	153.360000
461.114655	153.380000
461.208313	153.860000
461.302032	153.300000
461.395691	153.940000
461.489441	154.180000
461.583099	153.900000
461.676819	153.500000
461.770477	154.160000
461.864197	153.520000
461.957916	153.540000
462.051605	153.000000
462.145294	153.980000
462.238983	153.620000
462.332703	154.420000
462.426392	154.880000
462.520081	155.260000
462.613770	154.480000
462.707489	154.500000
462.801178	154.180000
462.894867	153.720000
462.988556	153.860000
463.082275	154.060000
463.175964	153.980000
463.269684	154.280000
463.363342	154.320000
463.457092	153.760000
463.550751	153.760000
463.644470	153.980000
463.738129	153.460000
463.831879	153.920000
463.925537	155.060000
464.019257	155.180000
464.112946	154.920000
464.206665	154.880000
464.300323	154.340000
464.394043	153.740000
464.487762	153.580000
464.581451	153.900000
464.675140	153.780000
464.768829	154.160000
464.862549	154.360000
464.956238	154.360000
465.049927	154.420000
465.143646	154.940000
465.237335	154.560000
465.331024	154.840000
465.424713	155.020000
465.518433	154.740000
465.612152	154.320000
465.705811	154.580000
465.799561	154.420000
465.893219	154.220000
465.986938	154.360000
466.080597	154.100000
466.174347	154.360000
466.268005	154.220000
466.361725	154.020000
466.455414	154.080000
466.549133	154.300000
466.642792	153.800000
466.736542	153.540000
466.830231	153.920000
466.923920	153.680000
467.017609	153.740000
467.111328	153.760000
467.205017	154.020000
467.298706	153.760000
467.392426	154.200000
467.486115	154.640000
467.579803	154.600000
467.673523	154.740000
467.767212	155.040000
467.860901	154.740000
467.954651	154.760000
468.048309	154.900000
468.142029	155.060000
468.235718	155.020000
468.329437	154.700000
468.423096	154.540000
468.516846	154.580000
468.610504	154.000000
468.704224	153.420000
468.797913	153.700000
468.891632	153.580000
468.985291	153.300000
469.079010	153.660000
469.172729	153.600000
469.266418	153.960000
469.360107	154.300000
469.453827	154.340000
469.547516	154.220000
469.641205	154.840000
469.734924	154.880000
469.828613	154.960000
469.922302	155.400000
470.016022	155.180000
470.109711	154.900000
470.203430	154.420000
470.297150	153.460000
470.390808	153.760000
470.484558	153.820000
470.578217	154.260000
470.671936	154.700000
470.765625	155.680000
470.859344	154.720000
470.953003	155.060000
471.046753	154.420000
471.140411	153.460000
471.234131	153.400000
471.327820	154.420000
471.421539	154.180000
471.515228	153.860000
471.608948	154.460000
471.702637	153.880000
471.796326	152.920000
471.890045	153.140000
471.983734	153.560000
472.077423	153.300000
472.171143	153.360000
472.264832	153.460000
472.358521	153.000000
472.452240	152.960000
472.545929	153.800000
472.639648	154.060000
472.733337	154.580000
472.827057	155.000000
472.920746	155.000000
473.014465	155.040000
473.108124	155.060000
473.201874	155.100000
473.295532	154.720000
473.389252	154.980000
473.482941	154.640000
473.576660	154.380000
473.670319	153.960000
473.764069	154.540000
473.857727	154.560000
473.951477	154.740000
474.045166	155.480000
474.138855	155.660000
474.232574	155.160000
474.326263	155.500000
474.419952	155.800000
474.513672	155.320000
474.607361	155.100000
474.701050	155.580000
474.794769	155.460000
474.888458	155.320000
474.982178	155.320000
475.075867	155.740000
475.169586	155.260000
475.263275	155.120000
475.356995	154.940000
475.450653	154.720000
475.544403	153.980000
475.638062	154.980000
475.731812	154.360000
475.825470	153.880000
475.919189	154.100000
476.012878	154.680000
476.106598	154.160000
476.200256	154.880000
476.294006	155.140000
476.387695	155.320000
476.481384	155.160000
476.575104	155.020000
476.668793	154.880000
476.762512	154.460000
476.856201	155.100000
476.949890	154.640000
477.043610	154.000000
477.137299	153.860000
477.230988	154.360000
477.324707	153.560000
477.418396	154.660000
477.512146	155.260000
477.605804	155.320000
477.699524	155.520000
477.793213	155.280000
477.886932	154.580000
477.980591	154.160000
478.074341	153.880000
478.167999	153.000000
478.261749	153.600000
478.355408	153.380000
478.449127	153.740000
478.542816	155.020000
478.636536	156.280000
478.730225	155.880000
478.823944	156.560000
478.917633	156.380000
479.011322	156.000000
479.105042	155.720000
479.198730	155.880000
479.292450	155.560000
479.386139	156.180000
479.479828	156.080000
479.573547	156.120000
479.667267	155.840000
479.760925	155.820000
479.854675	155.500000
479.948334	155.460000
480.042084	154.960000
480.135742	155.560000
480.229462	155.060000
480.323151	155.160000
480.416870	154.500000
480.510529	154.480000
480.604279	153.900000
480.697937	154.720000
480.791656	154.000000
480.885345	153.980000
480.979065	154.120000
481.072754	154.540000
481.166473	154.460000
481.260132	154.940000
481.353882	154.940000
481.447540	155.000000
481.541260	154.800000
481.635010	154.440000
481.728668	154.340000
481.822388	154.460000
481.916077	154.380000
482.009796	154.040000
482.103485	154.200000
482.197205	154.340000
482.290863	154.600000
482.384613	154.060000
482.478271	153.980000
482.571991	153.940000
482.665680	153.900000
482.759399	154.480000
482.853058	155.060000
482.946808	155.320000
483.040466	155.060000
483.134216	154.940000
483.227875	153.800000
483.321594	154.300000
483.415283	154.420000
483.509003	154.620000
483.602661	154.760000
483.696411	155.360000
483.790070	154.860000
483.883789	154.780000
483.977478	155.320000
484.071198	155.200000
484.164917	154.620000
484.258606	154.360000
484.352325	154.640000
484.445984	154.100000
484.539734	154.020000
484.633392	153.920000
484.727142	154.380000
484.820801	154.160000
484.914520	154.220000
485.008209	154.380000
485.101929	154.640000
485.195587	154.060000
485.289337	154.020000
485.382996	154.080000
485.476715	154.200000
485.570404	155.020000
485.664124	155.480000
485.757782	155.840000
485.851532	155.520000
485.945190	155.340000
486.038910	155.040000
486.132599	155.140000
486.226318	154.580000
486.319977	154.500000
486.413727	154.920000
486.507446	154.380000
486.601105	153.860000
486.694855	153.760000
486.788513	153.920000
486.882233	153.640000
486.975922	153.820000
487.069641	153.680000
487.163300	153.720000
487.257050	155.000000
487.350708	154.580000
487.444427	154.300000
487.538116	154.680000
487.631836	154.940000
487.725494	153.940000
487.819214	154.140000
487.912903	154.300000
488.006622	154.460000
488.100281	154.460000
488.194031	154.500000
488.287689	154.720000
488.381409	155.400000
488.475098	154.800000
488.568817	154.820000
488.662476	154.900000
488.756226	154.300000
488.849945	153.140000
488.943604	153.660000
489.037354	153.840000
489.131012	153.440000
489.224731	153.700000
489.318390	153.880000
489.412140	153.720000
489.505798	153.520000
489.599518	153.220000
489.693207	153.460000
489.786926	153.720000
489.880585	153.860000
489.974335	154.080000
490.067993	155.620000
490.161713	155.920000
490.255371	156.540000
490.349121	156.460000
490.442780	155.900000
490.536499	154.480000
490.630188	154.380000
490.723907	153.880000
490.817566	154.080000
490.911285	154.480000
491.004974	154.360000
491.098694	154.040000
491.192413	154.840000
491.286102	154.560000
491.379822	154.440000
491.473480	155.000000
491.567200	155.160000
491.660889	153.860000
491.754608	154.000000
491.848267	154.220000
491.941986	154.100000
492.035675	153.940000
492.129395	154.780000
492.223053	154.640000
492.316772	154.700000
492.410461	154.520000
492.504181	154.780000
492.597839	154.500000
492.691559	154.580000
492.785248	154.480000
492.878967	154.940000
492.972626	154.360000
493.066345	154.280000
493.160034	154.000000
493.253754	154.000000
493.347412	153.400000
493.441132	153.800000
493.534882	154.440000
493.628540	154.660000
493.722260	154.680000
493.815918	155.260000
493.909668	155.760000
494.003326	155.840000
494.097046	155.880000
494.190704	155.540000
494.284454	155.320000
494.378113	154.960000
494.471832	154.400000
494.565491	154.180000
494.659210	154.400000
494.752899	153.880000
494.846619	153.680000
494.940277	153.860000
495.033997	153.840000
495.127686	153.740000
495.221405	153.820000
495.315063	154.040000
495.408783	154.340000
495.502441	154.520000
495.596191	154.420000
495.689850	154.380000
495.783569	154.660000
495.877228	154.260000
495.970947	153.860000
496.064697	153.880000
496.158356	154.720000
496.252075	154.720000
496.345734	154.660000
496.439453	155.860000
496.533142	156.160000
496.626862	156.540000
496.720520	156.280000
496.814240	156.320000
496.907898	155.740000
497.001617	155.480000
497.095306	154.280000
497.189026	154.260000
497.282684	154.180000
497.376404	154.580000
497.470062	154.400000
497.563782	154.680000
497.657471	154.580000
497.751190	154.520000
497.844849	154.120000
497.938568	154.840000
498.032227	154.960000
498.125946	155.120000
498.219635	154.920000
498.313354	155.100000
498.407074	154.580000
498.500732	154.720000
498.594452	155.020000
498.688110	154.900000
498.781830	154.360000
498.875519	154.200000
498.969238	153.980000
499.062897	153.480000
499.156616	154.120000
499.250275	154.260000
499.343994	154.140000
499.437653	154.220000
499.531372	154.280000
499.625061	154.860000
499.718781	155.180000
499.812439	155.680000
499.906158	155.380000
499.999817	155.300000
500.093536	154.400000
500.187195	154.460000
500.280914	154.200000
500.374573	154.420000
500.468323	154.020000
500.561981	154.720000
500.655701	154.240000
500.749420	154.320000
500.843079	154.540000
500.936798	154.780000
501.030457	154.500000
501.124176	154.960000
501.217834	155.020000
501.311554	154.860000
501.405212	154.900000
501.498962	154.160000
501.592621	153.620000
501.686340	153.680000
501.779999	153.860000
501.873718	154.220000
501.967377	154.960000
502.061096	155.380000
502.154755	155.060000
502.248474	154.920000
502.342133	155.020000
502.435852	154.520000
502.529510	155.120000
502.623230	156.060000
502.716888	155.720000
502.810608	155.440000
502.904266	155.760000
502.997986	155.040000
503.091705	154.200000
503.185364	154.020000
503.279083	154.140000
503.372772	153.880000
503.466492	153.440000
503.560150	153.660000
503.653870	154.160000
503.747528	154.160000
503.841248	154.320000
503.934906	154.940000
504.028625	154.180000
504.122284	154.700000
504.216003	155.160000
504.309662	154.780000
504.403381	154.780000
504.497040	154.940000
504.590759	154.260000
504.684418	154.300000
504.778137	154.840000
504.871796	155.140000
504.965515	155.300000
505.059174	155.500000
505.152893	154.520000
505.246521	154.080000
505.340240	153.360000
505.433899	153.440000
505.527618	153.440000
505.621338	154.120000
505.714996	153.920000
505.808716	153.940000
505.902374	154.500000
505.996094	154.740000
506.089752	154.240000
506.183472	154.620000
506.277130	155.120000
506.370850	155.180000
506.464508	154.640000
506.558228	154.740000
506.651886	154.460000
506.745605	154.120000
506.839264	154.060000
506.932983	154.360000
507.026611	154.440000
507.120331	154.920000
507.213989	154.480000
507.307709	154.280000
507.401367	154.640000
507.495087	155.740000
507.588745	155.460000
507.682465	156.620000
507.776123	156.380000
507.869843	156.100000
507.963531	155.460000
508.057190	155.980000
508.150909	154.860000
508.244568	155.260000
508.338287	155.020000
508.431946	154.640000
508.525665	154.280000
508.619324	154.700000
508.713013	154.880000
508.806671	155.300000
508.900391	156.160000
508.994049	156.160000
509.087769	155.560000
509.181427	155.180000
509.275146	154.720000
509.368774	153.540000
509.462494	153.460000
509.556152	153.620000
509.649872	154.020000
509.743530	154.380000
509.837250	154.900000
509.930878	154.900000
510.024597	155.220000
510.118256	154.580000
510.211975	154.220000
510.305695	153.840000
510.399353	154.000000
510.493042	154.380000
510.586700	154.940000
510.680420	155.680000
510.774078	155.680000
510.867798	155.740000
510.961426	155.060000
511.055145	154.780000
511.148804	154.040000
511.242523	154.420000
511.336151	154.680000
511.429871	155.560000
511.523529	155.420000
511.617249	155.360000
511.710876	155.240000
511.804596	154.600000
511.898254	154.260000
511.991974	154.720000
512.085632	154.540000
512.179321	154.660000
512.272949	155.000000
512.366699	155.140000
512.460327	154.620000
512.554077	155.700000
512.647766	155.540000
512.741394	155.440000
512.835144	155.640000
512.928772	155.580000
513.022461	155.220000
513.116150	154.840000
513.209839	155.300000
513.303467	154.340000
513.397217	154.280000
513.490845	153.820000
513.584595	153.740000
513.678223	152.960000
513.771912	152.800000
513.865601	152.880000
513.959290	152.900000
514.052917	153.300000
514.146667	154.340000
514.240295	155.040000
514.333984	155.460000
514.427673	155.260000
514.521362	155.840000
514.614990	154.620000
514.708740	154.380000
514.802368	154.400000
514.896057	154.900000
514.989746	155.100000
515.083435	155.420000
515.177124	155.860000
515.270752	155.480000
515.364502	155.060000
515.458130	154.660000
515.551819	154.240000
515.645508	154.020000
515.739197	154.020000
515.832825	154.220000
515.926575	153.940000
516.020203	154.640000
516.113892	155.040000
516.207520	154.840000
516.301270	154.860000
516.394897	154.940000
516.488586	155.180000
516.582275	155.140000
516.675964	154.580000
516.769592	154.760000
516.863281	155.260000
516.956970	155.420000
517.050659	155.020000
517.144287	155.600000
517.238037	155.340000
517.331665	154.460000
517.425354	153.460000
517.519043	153.380000
517.612732	153.920000
517.706421	153.900000
517.800049	154.000000
517.893738	154.200000
517.987427	154.060000
518.081116	153.320000
518.174744	153.080000
518.268433	153.280000
518.362122	154.240000
518.455811	154.320000
518.549438	155.180000
518.643127	156.180000
518.736816	156.060000
518.830505	155.260000
518.924133	155.100000
519.017822	155.360000
519.111511	155.080000
519.205200	155.640000
519.298828	155.580000
519.392517	155.540000
519.486206	155.300000
519.579895	155.260000
519.673523	154.560000
519.767212	154.840000
519.860901	155.480000
519.954590	154.840000
520.048279	154.260000
520.141907	154.440000
520.235596	155.200000
520.329224	155.040000
520.422974	155.040000
520.516602	155.140000
520.610291	154.640000
520.703918	154.100000
520.797607	153.660000
520.891296	153.560000
520.984985	153.920000
521.078613	154.780000
521.172302	154.100000
521.265930	155.240000
521.359680	155.880000
521.453308	155.660000
521.546997	155.400000
521.640625	155.960000
521.734314	155.360000
521.827942	155.300000
521.921692	155.660000
522.015320	155.580000
522.109009	155.160000
522.202698	155.060000
522.296326	154.840000
522.390015	154.840000
522.483704	155.140000
522.577393	155.100000
522.671021	154.720000
522.764709	154.500000
522.858337	154.780000
522.952026	154.600000
523.045654	155.360000
523.139404	156.380000
523.233032	156.520000
523.326721	156.060000
523.420349	155.940000
523.514038	155.300000
523.607666	155.100000
523.701355	154.680000
523.795044	154.580000
523.888733	154.700000
523.982361	155.060000
524.076050	154.720000
524.169678	155.440000
524.263367	155.160000
524.356995	155.120000
524.450684	155.100000
524.544373	154.500000
524.638062	154.280000
524.731750	154.920000
524.825378	154.780000
524.919067	154.280000
525.012695	154.720000
525.106384	154.400000
525.200012	154.160000
525.293701	154.180000
525.387329	154.560000
525.481018	154.880000
525.574646	155.280000
525.668396	155.360000
525.762024	155.600000
525.855713	155.680000
525.949341	154.940000
526.043030	154.960000
526.136658	154.720000
526.230347	154.440000
526.323975	154.040000
526.417664	154.220000
526.511292	154.180000
526.604980	154.280000
526.698608	154.320000
526.792297	154.300000
526.885925	154.520000
526.979614	155.000000
527.073303	154.780000
527.166931	154.580000
527.260620	154.760000
527.354309	155.340000
527.447998	155.060000
527.541626	155.180000
527.635315	155.580000
527.728943	156.100000
527.822632	155.820000
527.916260	155.700000
528.009949	155.760000
528.103577	155.440000
528.197266	154.640000
528.290894	154.800000
528.384583	154.640000
528.478210	154.580000
528.571899	154.700000
528.665527	155.100000
528.759216	154.960000
528.852844	155.400000
528.946533	155.460000
529.040161	155.340000
529.133850	155.260000
529.227478	155.360000
529.321167	155.260000
529.414856	155.640000
529.508484	156.220000
529.602173	155.900000
529.695801	155.620000
529.789490	155.420000
529.883057	155.080000
529.976746	154.960000
530.070374	155.560000
530.164062	155.300000
530.257690	155.560000
530.351379	155.880000
530.445007	155.820000
530.538696	155.340000
530.632324	155.940000
530.726013	155.740000
530.819641	155.240000
530.913330	155.080000
531.006958	154.780000
531.100647	154.480000
531.194275	154.320000
531.287964	154.380000
531.381592	154.120000
531.475220	154.640000
531.568848	154.660000
531.662537	154.420000
531.756226	154.840000
531.849854	154.900000
531.943542	154.860000
532.037170	154.280000
532.130859	155.000000
532.224487	154.680000
532.318176	154.320000
532.411804	154.620000
532.505432	155.160000
532.599060	154.620000
532.692749	154.440000
532.786377	155.100000
532.880066	154.620000
532.973694	153.940000
533.067383	154.060000
533.161011	153.980000
533.254639	153.940000
533.348267	154.100000
533.441956	154.760000
533.535583	154.560000
533.629272	154.780000
533.722900	154.140000
533.816589	153.920000
533.910156	154.220000
534.003845	153.780000
534.097534	153.940000
534.191162	154.880000
534.284851	155.120000
534.378479	154.600000
534.472107	154.800000
534.565735	154.600000
534.659424	154.480000
534.753052	154.740000
534.846741	154.580000
534.940369	155.480000
535.033997	155.480000
535.127625	155.080000
535.221313	155.380000
535.314941	155.480000
535.408630	154.620000
535.502197	154.900000
535.595886	155.080000
535.689514	154.480000
535.783203	155.060000
535.876831	155.940000
535.970459	155.720000
536.064087	155.220000
536.157776	155.420000
536.251404	155.240000
536.345093	154.480000
536.438721	154.800000
536.532349	155.260000
536.626038	154.800000
536.719666	154.860000
536.813293	154.980000
536.906921	154.680000
537.000610	154.720000
537.094238	155.080000
537.187866	155.080000
537.281494	154.980000
537.375183	155.100000
537.468811	154.900000
537.562439	154.960000
537.656067	154.680000
537.749756	154.520000
537.843384	154.980000
537.937012	155.260000
538.030640	154.780000
538.124329	154.640000
538.217896	155.360000
538.311584	155.000000
538.405212	154.760000
538.498901	155.380000
538.592468	156.300000
538.686157	155.620000
538.779785	154.920000
538.873413	154.820000
538.967102	154.280000
539.060730	153.540000
539.154358	154.120000
539.247986	154.620000
539.341675	154.720000
539.435242	154.800000
539.528931	154.920000
539.622559	154.180000
539.716187	154.620000
539.809814	154.540000
539.903503	154.680000
539.997070	154.240000
540.090759	154.620000
540.184387	154.480000
540.278015	155.120000
540.371643	155.340000
540.465332	155.780000
540.558899	155.440000
540.652588	155.460000
540.746216	155.040000
540.839844	155.000000
540.933472	155.040000
541.027100	155.260000
541.120728	155.240000
541.214417	155.420000
541.308044	155.480000
541.401672	155.080000
541.495300	154.900000
541.588928	154.680000
541.682617	154.280000
541.776184	154.160000
541.869873	154.580000
541.963440	154.900000
542.057129	154.800000
542.150757	155.180000
542.244385	154.960000
542.338013	154.320000
542.431641	154.380000
542.525269	154.180000
542.618958	154.480000
542.712524	154.980000
542.806213	155.180000
542.899780	155.280000
542.993469	155.360000
543.087036	154.680000
543.180725	154.000000
543.274292	154.240000
543.367981	154.160000
543.461548	154.400000
543.555237	154.380000
543.648926	154.980000
543.742493	155.860000
543.836182	155.780000
543.929749	155.740000
544.023437	155.800000
544.117004	155.600000
544.210693	155.160000
544.304260	155.220000
544.397949	154.980000
544.491516	155.440000
544.585205	155.500000
544.678772	154.800000
544.772461	155.360000
544.866028	155.520000
544.959717	155.480000
545.053284	154.880000
545.146973	155.240000
545.240540	154.860000
545.334229	155.060000
545.427795	154.880000
545.521423	155.320000
545.615051	155.240000
545.708679	155.640000
545.802307	155.320000
545.895935	155.700000
545.989624	156.360000
546.083191	156.180000
546.176880	155.680000
546.270447	155.420000
546.364136	155.460000
546.457703	154.660000
546.551331	154.680000
546.644958	154.500000
546.738586	155.120000
546.832214	154.720000
546.925842	154.900000
547.019409	155.320000
547.113098	155.240000
547.206665	154.660000
547.300354	154.800000
547.393921	155.000000
547.487549	155.300000
547.581177	155.260000
547.674805	155.380000
547.768433	154.800000
547.862061	154.600000
547.955627	153.660000
548.049316	154.400000
548.142883	154.580000
548.236572	154.960000
548.330139	155.300000
548.423767	155.560000
548.517456	155.320000
548.611023	155.640000
548.704651	155.220000
548.798279	155.060000
548.891907	155.740000
548.985474	155.440000
549.079163	155.740000
549.172729	155.780000
549.266357	155.000000
549.359985	154.800000
549.453613	154.220000
549.547180	153.600000
549.640869	154.240000
549.734436	154.760000
549.828064	154.820000
549.921631	155.240000
550.015320	154.920000
550.108887	155.080000
550.202515	155.060000
550.296143	154.600000
550.389771	154.800000
550.483337	155.160000
550.576965	154.920000
550.670593	155.300000
550.764221	155.600000
550.857849	155.280000
550.951477	154.920000
551.045105	154.500000
551.138672	154.340000
551.232300	153.580000
551.325928	153.940000
551.419556	154.300000
551.513123	154.100000
551.606750	153.540000
551.700378	154.020000
551.794006	153.720000
551.887573	153.920000
551.981201	154.960000
552.074768	155.340000
552.168457	155.280000
552.262024	156.700000
552.355652	156.700000
552.449219	156.780000
552.542847	156.760000
552.636475	156.140000
552.730103	154.480000
552.823669	154.040000
552.917297	153.100000
553.010864	152.940000
553.104553	153.900000
553.198181	153.940000
553.291748	154.580000
553.385376	154.920000
553.478943	155.100000
553.572571	154.500000
553.666199	155.100000
553.759827	154.120000
553.853394	153.680000
553.947021	153.800000
554.040588	154.060000
554.134216	153.740000
554.227783	154.940000
554.321411	155.640000
554.415039	155.260000
554.508667	155.200000
554.602234	155.660000
554.695862	154.620000
554.789429	154.400000
554.883057	154.400000
554.976624	154.380000
555.070251	154.060000
555.163818	154.100000
555.257507	154.280000
555.351074	154.560000
555.444702	155.780000
555.538330	155.540000
555.631897	156.140000
555.725525	155.680000
555.819092	155.640000
555.912720	154.280000
556.006287	154.940000
556.099915	154.420000
556.193481	154.580000
556.287109	154.880000
556.380676	155.000000
556.474304	154.760000
556.567871	155.400000
556.661499	155.180000
556.755066	154.880000
556.848694	154.940000
556.942261	154.660000
557.035889	154.660000
557.129517	154.580000
557.223145	154.960000
557.316711	155.000000
557.410339	155.060000
557.503906	154.480000
557.597473	155.020000
557.691040	154.760000
557.784668	154.940000
557.878296	154.900000
557.971863	155.220000
558.065491	155.380000
558.159058	154.960000
558.252686	155.640000
558.346252	156.620000
558.439880	156.020000
558.533447	155.560000
558.627075	155.440000
558.720642	154.580000
558.814270	153.660000
558.907837	154.000000
559.001465	153.640000
559.095032	154.780000
559.188660	154.960000
559.282227	154.500000
559.375854	154.760000
559.469360	154.700000
559.562988	154.720000
559.656555	154.440000
559.750183	155.000000
559.843750	155.220000
559.937378	155.720000
560.030945	155.060000
560.124573	0.000000
560.218140	0.000000
560.311707	0.000000
560.405334	0.000000
560.498901	0.000000
560.592529	0.000000
560.686096	0.000000
560.779724	0.000000
560.873291	0.000000
560.966858	0.000000
561.060425	0.000000
561.154053	0.000000
561.247620	0.000000
561.341248	0.000000
561.434814	0.000000
561.528381	0.000000
561.621948	0.000000
561.715576	0.000000
561.809143	0.000000
561.902771	0.000000
561.996277	0.000000
562.089905	0.000000
562.183472	0.000000
562.277100	0.000000
