Model Number: SPM-002-B   
Serial Number: 70087108
Firmware Version: 004.15.4
Exposure Time: 100000.000000us
Data Taken on: 15-01-2021 17:49:49.734
Wavelength	Amplitude
221.570786	0.000000
221.663406	0.000000
221.756027	0.000000
221.848648	0.000000
221.941269	0.000000
222.033905	0.000000
222.126526	0.000000
222.219162	0.000000
222.311798	0.000000
222.404419	0.000000
222.497055	0.000000
222.589676	0.000000
222.682312	0.000000
222.774933	0.000000
222.867569	0.000000
222.960205	0.000000
223.052841	0.000000
223.145462	0.000000
223.238098	0.000000
223.330734	0.000000
223.423386	0.000000
223.516022	0.000000
223.608658	0.000000
223.701309	0.000000
223.793945	0.000000
223.886581	0.000000
223.979218	0.000000
224.071869	0.000000
224.164505	0.000000
224.257156	0.000000
224.349792	0.000000
224.442444	0.000000
224.535095	0.000000
224.627747	0.000000
224.720398	0.000000
224.813034	0.000000
224.905685	0.000000
224.998337	154.080000
225.090988	153.960000
225.183640	154.060000
225.276291	154.000000
225.368942	154.380000
225.461594	154.640000
225.554245	155.040000
225.646912	155.160000
225.739578	155.580000
225.832230	156.020000
225.924896	155.520000
226.017548	155.700000
226.110199	156.040000
226.202866	155.060000
226.295532	155.000000
226.388184	154.840000
226.480850	154.100000
226.573517	153.580000
226.666168	154.080000
226.758835	154.000000
226.851501	154.600000
226.944183	154.980000
227.036850	154.520000
227.129517	154.600000
227.222183	154.780000
227.314850	154.860000
227.407516	154.980000
227.500198	156.080000
227.592865	155.820000
227.685532	155.340000
227.778214	154.920000
227.870880	155.240000
227.963562	155.260000
228.056229	155.620000
228.148926	155.920000
228.241592	156.740000
228.334274	156.300000
228.426956	156.100000
228.519638	155.820000
228.612305	155.060000
228.704987	154.780000
228.797668	154.840000
228.890350	154.260000
228.983032	153.900000
229.075714	154.860000
229.168396	154.580000
229.261108	154.240000
229.353790	154.680000
229.446472	155.240000
229.539169	154.800000
229.631851	154.340000
229.724533	154.500000
229.817230	154.620000
229.909912	155.460000
230.002609	155.540000
230.095306	155.700000
230.187988	155.880000
230.280685	155.420000
230.373383	154.000000
230.466095	153.900000
230.558792	154.080000
230.651474	153.880000
230.744171	154.180000
230.836868	154.180000
230.929581	154.320000
231.022278	154.420000
231.114975	154.660000
231.207672	154.520000
231.300369	155.040000
231.393082	155.160000
231.485779	155.040000
231.578506	154.640000
231.671204	154.480000
231.763916	154.480000
231.856613	154.440000
231.949326	154.660000
232.042023	154.820000
232.134735	155.120000
232.227448	154.760000
232.320160	155.320000
232.412872	154.980000
232.505585	155.920000
232.598297	156.060000
232.691010	156.040000
232.783722	154.980000
232.876450	155.820000
232.969162	154.980000
233.061874	154.360000
233.154587	154.060000
233.247314	154.600000
233.340027	153.680000
233.432739	154.100000
233.525467	154.040000
233.618179	154.960000
233.710907	154.520000
233.803635	155.180000
233.896347	154.580000
233.989090	155.160000
234.081818	154.960000
234.174545	155.120000
234.267258	154.520000
234.359985	154.960000
234.452713	154.660000
234.545441	154.240000
234.638168	154.300000
234.730896	154.740000
234.823639	154.560000
234.916367	154.960000
235.009094	155.260000
235.101822	155.260000
235.194580	155.120000
235.287308	155.160000
235.380051	154.680000
235.472778	154.740000
235.565521	155.040000
235.658249	154.680000
235.750992	154.740000
235.843719	154.880000
235.936462	155.200000
236.029205	154.620000
236.121948	154.300000
236.214691	154.800000
236.307449	155.600000
236.400192	155.060000
236.492935	155.220000
236.585678	155.860000
236.678421	155.520000
236.771164	155.000000
236.863907	155.780000
236.956665	156.060000
237.049408	157.820000
237.142151	157.180000
237.234909	157.980000
237.327652	157.740000
237.420410	157.500000
237.513153	156.060000
237.605927	156.520000
237.698669	155.560000
237.791428	154.480000
237.884186	155.060000
237.976944	154.640000
238.069702	154.660000
238.162445	154.380000
238.255203	155.100000
238.347961	155.160000
238.440720	155.240000
238.533478	155.260000
238.626266	155.320000
238.719025	155.460000
238.811783	154.900000
238.904541	155.020000
238.997314	154.980000
239.090073	154.480000
239.182831	154.720000
239.275604	155.780000
239.368362	155.540000
239.461136	155.480000
239.553909	155.920000
239.646667	155.480000
239.739441	154.600000
239.832214	155.080000
239.925003	155.040000
240.017761	155.300000
240.110535	156.060000
240.203308	155.720000
240.296082	155.580000
240.388855	155.600000
240.481628	155.680000
240.574417	155.360000
240.667191	155.620000
240.759964	155.160000
240.852737	154.960000
240.945526	154.460000
241.038315	154.400000
241.131088	154.500000
241.223877	154.920000
241.316650	154.560000
241.409439	155.280000
241.502228	154.740000
241.595001	155.180000
241.687790	154.780000
241.780579	155.160000
241.873367	155.040000
241.966141	155.480000
242.058929	154.620000
242.151718	155.000000
242.244507	155.420000
242.337311	154.720000
242.430099	155.200000
242.522903	155.660000
242.615692	155.100000
242.708481	155.140000
242.801270	155.940000
242.894073	155.360000
242.986862	155.500000
243.079651	156.440000
243.172455	155.920000
243.265244	155.580000
243.358063	155.060000
243.450867	155.120000
243.543655	154.800000
243.636459	155.060000
243.729263	155.700000
243.822067	156.220000
243.914856	156.320000
244.007660	156.140000
244.100464	156.320000
244.193268	155.400000
244.286072	155.320000
244.378876	154.880000
244.471680	154.700000
244.564499	154.800000
244.657318	155.740000
244.750122	156.040000
244.842926	155.820000
244.935745	156.320000
245.028549	156.000000
245.121368	155.520000
245.214172	155.300000
245.306992	155.500000
245.399796	154.740000
245.492615	154.760000
245.585434	154.460000
245.678253	154.560000
245.771072	154.520000
245.863892	155.000000
245.956711	155.200000
246.049530	155.180000
246.142349	154.720000
246.235168	154.840000
246.327988	155.380000
246.420807	154.880000
246.513626	154.820000
246.606445	154.640000
246.699280	154.620000
246.792099	153.680000
246.884918	153.560000
246.977753	153.620000
247.070587	154.180000
247.163422	153.960000
247.256241	154.400000
247.349075	154.740000
247.441895	154.700000
247.534729	154.120000
247.627563	154.260000
247.720383	154.840000
247.813217	154.680000
247.906052	154.660000
247.998886	155.220000
248.091736	155.120000
248.184570	154.460000
248.277405	154.540000
248.370239	155.540000
248.463074	156.540000
248.555908	156.520000
248.648743	156.760000
248.741592	157.060000
248.834427	156.060000
248.927261	154.600000
249.020111	155.340000
249.112946	155.460000
249.205795	155.000000
249.298630	155.400000
249.391495	155.860000
249.484344	155.200000
249.577179	155.220000
249.670029	155.580000
249.762878	155.660000
249.855728	155.740000
249.948563	156.020000
250.041412	155.160000
250.134262	155.220000
250.227112	155.360000
250.319962	155.120000
250.412827	155.080000
250.505692	155.140000
250.598541	155.120000
250.691391	154.640000
250.784241	154.700000
250.877106	154.740000
250.969955	155.020000
251.062805	155.300000
251.155670	155.780000
251.248520	155.800000
251.341385	155.720000
251.434235	155.400000
251.527100	155.000000
251.619965	154.660000
251.712814	155.340000
251.805695	155.160000
251.898560	155.680000
251.991425	156.040000
252.084290	156.020000
252.177155	155.100000
252.270020	154.960000
252.362885	154.720000
252.455750	154.580000
252.548615	154.580000
252.641479	154.640000
252.734360	154.720000
252.827240	154.580000
252.920105	154.620000
253.012970	154.540000
253.105850	154.440000
253.198715	154.340000
253.291595	154.560000
253.384460	154.140000
253.477341	154.080000
253.570221	154.380000
253.663086	153.980000
253.755966	154.600000
253.848846	155.020000
253.941727	155.340000
254.034592	155.120000
254.127472	155.000000
254.220367	154.860000
254.313248	154.580000
254.406128	153.900000
254.499008	154.280000
254.591904	155.320000
254.684784	155.520000
254.777664	155.480000
254.870544	155.540000
254.963440	155.560000
255.056335	155.280000
255.149216	154.820000
255.242111	155.360000
255.334991	155.700000
255.427887	155.720000
255.520767	155.960000
255.613663	156.140000
255.706558	155.360000
255.799438	155.000000
255.892334	154.580000
255.985229	154.500000
256.078125	154.320000
256.171021	154.520000
256.263916	155.320000
256.356812	155.500000
256.449707	155.360000
256.542603	155.140000
256.635498	155.800000
256.728394	155.400000
256.821289	155.200000
256.914215	155.280000
257.007080	155.540000
257.100006	155.260000
257.192932	155.560000
257.285828	155.600000
257.378723	155.220000
257.471619	155.160000
257.564545	154.760000
257.657440	154.680000
257.750336	155.300000
257.843262	155.220000
257.936157	156.400000
258.029053	156.740000
258.121979	156.800000
258.214874	156.200000
258.307800	156.360000
258.400696	155.060000
258.493622	154.860000
258.586517	154.060000
258.679443	154.520000
258.772339	153.880000
258.865265	153.740000
258.958160	153.340000
259.051086	154.600000
259.144012	154.140000
259.236938	155.360000
259.329834	155.620000
259.422791	155.540000
259.515717	154.620000
259.608612	154.460000
259.701538	154.240000
259.794464	153.840000
259.887390	154.140000
259.980316	154.200000
260.073212	154.540000
260.166138	153.600000
260.259064	153.860000
260.351990	154.460000
260.444916	154.420000
260.537842	154.640000
260.630768	155.660000
260.723694	155.680000
260.816620	155.460000
260.909546	155.400000
261.002472	154.920000
261.095398	154.200000
261.188354	154.160000
261.281281	153.960000
261.374207	154.200000
261.467133	154.620000
261.560089	154.920000
261.653015	154.720000
261.745972	155.100000
261.838867	155.440000
261.931824	155.800000
262.024780	155.320000
262.117706	155.660000
262.210663	155.480000
262.303589	155.100000
262.396515	154.920000
262.489471	156.080000
262.582397	155.900000
262.675354	155.300000
262.768280	155.380000
262.861237	155.000000
262.954163	154.700000
263.047119	154.440000
263.140045	154.580000
263.233002	154.500000
263.325958	154.560000
263.418884	153.900000
263.511841	153.960000
263.604797	153.940000
263.697723	153.940000
263.790680	154.120000
263.883636	154.520000
263.976593	154.760000
264.069550	154.940000
264.162476	154.880000
264.255463	154.640000
264.348419	154.900000
264.441376	155.200000
264.534332	154.600000
264.627289	154.320000
264.720245	154.600000
264.813202	153.860000
264.906158	154.060000
264.999115	155.000000
265.092072	155.500000
265.185028	155.800000
265.277985	156.140000
265.370941	155.880000
265.463898	155.460000
265.556854	155.040000
265.649811	154.080000
265.742798	154.000000
265.835754	153.700000
265.928711	154.200000
266.021667	154.660000
266.114655	155.120000
266.207611	155.540000
266.300568	155.360000
266.393585	154.700000
266.486511	154.700000
266.579498	153.980000
266.672485	153.740000
266.765442	153.760000
266.858429	154.420000
266.951385	153.920000
267.044342	154.380000
267.137329	154.320000
267.230316	154.560000
267.323273	153.920000
267.416260	154.660000
267.509216	154.680000
267.602203	154.700000
267.695160	155.320000
267.788147	155.760000
267.881134	154.860000
267.974091	155.260000
268.067078	154.940000
268.160065	154.420000
268.253052	154.280000
268.346008	154.620000
268.438995	154.160000
268.531982	154.720000
268.624969	154.600000
268.717987	154.880000
268.810944	154.840000
268.903961	155.240000
268.996948	154.500000
269.089905	155.040000
269.182892	154.720000
269.275879	155.120000
269.368866	154.660000
269.461853	155.200000
269.554871	154.680000
269.647858	154.880000
269.740845	154.820000
269.833832	155.120000
269.926819	155.080000
270.019806	155.220000
270.112793	154.720000
270.205811	155.020000
270.298798	155.160000
270.391785	155.480000
270.484772	155.080000
270.577789	155.600000
270.670776	155.000000
270.763763	154.720000
270.856750	154.400000
270.949768	154.140000
271.042786	153.960000
271.135773	153.820000
271.228790	154.200000
271.321808	154.140000
271.414795	154.320000
271.507782	154.280000
271.600800	154.260000
271.693817	154.160000
271.786804	154.500000
271.879822	154.860000
271.972809	154.600000
272.065826	155.260000
272.158844	154.580000
272.251831	155.260000
272.344849	155.240000
272.437866	155.320000
272.530853	155.240000
272.623871	155.920000
272.716888	154.360000
272.809906	154.740000
272.902893	154.760000
272.995911	153.940000
273.088928	153.780000
273.181946	154.420000
273.274963	154.040000
273.367981	153.800000
273.460999	154.140000
273.554047	154.520000
273.647003	154.980000
273.740051	154.880000
273.833069	155.480000
273.926086	156.020000
274.019135	155.740000
274.112152	155.560000
274.205170	155.960000
274.298187	156.060000
274.391205	155.280000
274.484222	155.200000
274.577240	154.960000
274.670258	154.480000
274.763306	154.300000
274.856323	155.060000
274.949341	155.020000
275.042358	155.260000
275.135406	155.520000
275.228424	155.760000
275.321442	155.720000
275.414490	155.800000
275.507507	156.120000
275.600525	156.380000
275.693573	156.080000
275.786591	155.460000
275.879669	155.420000
275.972656	154.900000
276.065735	154.520000
276.158752	154.700000
276.251801	155.620000
276.344818	155.960000
276.437866	156.020000
276.530884	155.980000
276.623932	155.300000
276.716980	154.960000
276.809998	154.620000
276.903046	154.620000
276.996094	155.540000
277.089111	156.240000
277.182159	156.680000
277.275208	156.400000
277.368256	156.700000
277.461304	155.960000
277.554321	155.280000
277.647369	154.740000
277.740417	155.160000
277.833466	154.660000
277.926514	154.720000
278.019562	155.520000
278.112610	155.220000
278.205688	155.200000
278.298706	155.620000
278.391785	155.260000
278.484833	154.420000
278.577881	154.440000
278.670929	154.860000
278.763977	154.880000
278.857025	155.600000
278.950073	155.780000
279.043121	155.860000
279.136169	155.320000
279.229248	154.600000
279.322296	154.200000
279.415344	154.120000
279.508392	153.800000
279.601440	153.820000
279.694519	154.200000
279.787567	154.100000
279.880615	154.120000
279.973694	154.400000
280.066742	154.460000
280.159790	154.420000
280.252869	154.200000
280.345917	154.520000
280.438995	154.000000
280.532074	153.660000
280.625122	153.960000
280.718201	154.760000
280.811279	154.540000
280.904327	154.980000
280.997406	155.360000
281.090454	155.240000
281.183533	154.480000
281.276581	154.480000
281.369659	154.320000
281.462738	154.240000
281.555786	154.220000
281.648865	154.540000
281.741943	154.600000
281.835022	155.440000
281.928070	155.400000
282.021149	155.260000
282.114227	154.940000
282.207306	155.220000
282.300385	155.160000
282.393433	155.240000
282.486511	155.420000
282.579590	156.080000
282.672668	156.100000
282.765747	155.480000
282.858856	155.440000
282.951904	155.380000
283.045013	155.260000
283.138062	155.240000
283.231171	155.580000
283.324249	155.900000
283.417328	156.100000
283.510406	155.460000
283.603485	155.240000
283.696564	155.180000
283.789642	155.100000
283.882751	154.700000
283.975830	155.440000
284.068909	155.160000
284.161987	155.720000
284.255066	155.020000
284.348175	155.200000
284.441254	154.840000
284.534332	155.520000
284.627441	154.580000
284.720520	154.500000
284.813599	154.520000
284.906708	154.400000
284.999786	153.600000
285.092896	153.760000
285.185974	155.100000
285.279053	154.660000
285.372192	154.700000
285.465240	155.380000
285.558380	155.300000
285.651459	154.420000
285.744568	155.580000
285.837677	155.320000
285.930756	155.240000
286.023865	155.260000
286.116943	155.160000
286.210052	154.720000
286.303162	154.760000
286.396240	154.640000
286.489349	154.420000
286.582458	154.840000
286.675568	154.160000
286.768646	154.460000
286.861755	154.840000
286.954865	155.760000
287.047974	155.020000
287.141083	155.320000
287.234161	155.440000
287.327271	154.900000
287.420380	154.960000
287.513519	154.800000
287.606598	154.880000
287.699738	154.880000
287.792816	155.180000
287.885956	155.000000
287.979034	155.320000
288.072174	155.460000
288.165283	155.380000
288.258392	155.340000
288.351501	154.560000
288.444611	154.940000
288.537720	155.180000
288.630859	154.940000
288.723969	155.000000
288.817078	155.700000
288.910187	155.800000
289.003296	154.920000
289.096436	154.680000
289.189545	154.560000
289.282654	153.760000
289.375763	153.840000
289.468903	154.480000
289.562012	155.040000
289.655121	154.880000
289.748260	155.660000
289.841400	155.860000
289.934509	155.760000
290.027649	155.840000
290.120728	155.800000
290.213898	155.300000
290.306976	154.720000
290.400146	155.040000
290.493256	154.500000
290.586395	154.640000
290.679535	155.080000
290.772644	155.220000
290.865784	154.460000
290.958893	154.680000
291.052032	154.700000
291.145172	154.820000
291.238281	154.360000
291.331421	154.460000
291.424561	154.980000
291.517670	154.660000
291.610809	154.540000
291.703949	154.900000
291.797089	155.400000
291.890228	154.480000
291.983337	154.480000
292.076477	154.060000
292.169617	154.340000
292.262756	153.940000
292.355927	153.980000
292.449036	153.860000
292.542206	154.080000
292.635315	153.940000
292.728485	154.480000
292.821625	154.520000
292.914764	155.940000
293.007904	156.100000
293.101044	156.280000
293.194183	156.080000
293.287323	156.500000
293.380463	155.560000
293.473602	155.020000
293.566742	154.760000
293.659882	155.020000
293.753021	154.820000
293.846191	154.680000
293.939331	154.760000
294.032471	154.640000
294.125610	154.320000
294.218781	154.880000
294.311920	155.240000
294.405060	155.340000
294.498230	155.520000
294.591370	155.540000
294.684540	154.560000
294.777679	154.180000
294.870850	154.420000
294.963959	154.100000
295.057159	153.880000
295.150299	154.600000
295.243469	154.540000
295.336609	153.960000
295.429779	154.560000
295.522919	155.020000
295.616089	154.680000
295.709229	155.140000
295.802399	155.600000
295.895569	155.060000
295.988708	154.680000
296.081879	155.020000
296.175018	154.620000
296.268188	154.340000
296.361359	154.980000
296.454529	155.100000
296.547668	154.780000
296.640839	154.960000
296.734009	154.720000
296.827179	154.600000
296.920319	154.700000
297.013519	154.640000
297.106659	154.700000
297.199860	154.900000
297.292999	154.560000
297.386200	154.480000
297.479309	154.460000
297.572510	154.500000
297.665680	154.540000
297.758850	154.440000
297.852020	154.260000
297.945190	153.960000
298.038361	153.440000
298.131531	154.540000
298.224701	154.740000
298.317871	154.360000
298.411072	154.080000
298.504242	154.340000
298.597412	153.500000
298.690582	153.820000
298.783752	154.140000
298.876923	155.080000
298.970093	155.080000
299.063293	155.400000
299.156464	155.600000
299.249634	155.960000
299.342834	155.920000
299.436005	156.260000
299.529205	155.980000
299.622345	155.460000
299.715576	154.620000
299.808716	154.400000
299.901917	154.100000
299.995117	154.360000
300.088287	154.500000
300.181488	154.800000
300.274658	154.460000
300.367828	154.640000
300.461029	154.480000
300.554199	154.700000
300.647400	154.900000
300.740601	155.460000
300.833771	155.160000
300.926971	155.560000
301.020142	155.140000
301.113342	154.940000
301.206512	154.960000
301.299713	155.460000
301.392914	154.960000
301.486084	155.240000
301.579285	155.200000
301.672516	155.260000
301.765686	154.580000
301.858887	154.500000
301.952057	154.300000
302.045288	154.520000
302.138458	154.480000
302.231659	154.580000
302.324860	154.720000
302.418060	154.400000
302.511261	154.300000
302.604462	154.400000
302.697662	154.320000
302.790863	154.280000
302.884064	154.480000
302.977264	154.740000
303.070465	154.720000
303.163666	155.900000
303.256866	156.380000
303.350067	156.240000
303.443268	156.240000
303.536469	156.380000
303.629669	155.400000
303.722870	155.180000
303.816071	155.000000
303.909271	154.720000
304.002472	154.140000
304.095673	153.900000
304.188934	153.000000
304.282104	154.300000
304.375336	154.380000
304.468506	154.340000
304.561768	154.520000
304.654968	155.280000
304.748169	154.160000
304.841370	153.940000
304.934601	154.260000
305.027802	154.080000
305.121002	153.720000
305.214233	154.100000
305.307434	154.380000
305.400665	155.000000
305.493866	155.120000
305.587097	155.740000
305.680298	155.360000
305.773499	155.500000
305.866730	154.780000
305.959930	155.060000
306.053162	154.980000
306.146393	155.020000
306.239594	154.420000
306.332825	154.420000
306.426025	154.780000
306.519287	154.320000
306.612488	154.480000
306.705719	154.500000
306.798920	154.720000
306.892181	154.040000
306.985352	153.760000
307.078613	153.300000
307.171844	154.180000
307.265045	153.680000
307.358276	153.580000
307.451508	154.260000
307.544739	154.980000
307.637970	154.180000
307.731201	154.360000
307.824402	155.000000
307.917633	155.100000
308.010864	155.280000
308.104095	156.200000
308.197327	156.520000
308.290558	156.120000
308.383789	155.560000
308.477020	155.240000
308.570251	154.340000
308.663483	153.760000
308.756714	153.800000
308.849976	154.000000
308.943176	154.180000
309.036438	153.980000
309.129639	154.040000
309.222900	154.020000
309.316101	153.820000
309.409393	153.520000
309.502625	153.360000
309.595856	153.760000
309.689087	153.960000
309.782318	154.060000
309.875580	154.180000
309.968811	154.680000
310.062042	154.380000
310.155273	154.340000
310.248535	154.700000
310.341766	154.460000
310.434998	154.200000
310.528259	154.120000
310.621490	154.320000
310.714722	153.800000
310.807983	154.100000
310.901215	154.520000
310.994476	154.720000
311.087708	154.360000
311.181000	154.660000
311.274200	153.980000
311.367462	153.900000
311.460693	153.420000
311.553986	154.440000
311.647186	154.780000
311.740479	155.680000
311.833710	155.400000
311.926971	155.760000
312.020203	154.780000
312.113464	153.960000
312.206726	153.100000
312.299957	153.340000
312.393219	153.780000
312.486481	153.600000
312.579712	153.920000
312.672974	154.420000
312.766235	154.400000
312.859497	154.300000
312.952759	154.700000
313.045990	155.800000
313.139252	155.100000
313.232513	155.360000
313.325775	155.360000
313.419037	155.040000
313.512299	153.840000
313.605530	154.800000
313.698822	154.860000
313.792053	154.760000
313.885345	154.460000
313.978577	155.000000
314.071869	154.300000
314.165131	154.320000
314.258392	154.580000
314.351654	155.000000
314.444916	154.120000
314.538177	154.620000
314.631439	154.800000
314.724701	154.380000
314.817993	154.040000
314.911255	154.880000
315.004517	154.340000
315.097778	154.040000
315.191040	154.420000
315.284302	154.700000
315.377594	154.180000
315.470856	154.640000
315.564117	154.140000
315.657379	153.820000
315.750671	153.480000
315.843933	153.940000
315.937195	153.180000
316.030518	153.160000
316.123749	153.000000
316.217041	154.160000
316.310303	154.140000
316.403595	154.900000
316.496857	155.220000
316.590149	155.720000
316.683411	154.680000
316.776703	154.100000
316.869965	154.240000
316.963257	154.100000
317.056519	153.460000
317.149811	153.600000
317.243073	153.880000
317.336365	153.740000
317.429626	154.100000
317.522919	154.540000
317.616180	154.680000
317.709473	154.600000
317.802765	154.520000
317.896027	154.340000
317.989319	155.020000
318.082611	154.760000
318.175873	154.520000
318.269165	154.500000
318.362488	154.720000
318.455750	153.940000
318.549042	154.400000
318.642303	154.780000
318.735626	154.220000
318.828888	154.200000
318.922211	153.980000
319.015472	154.580000
319.108765	154.240000
319.202057	154.140000
319.295349	154.380000
319.388641	154.520000
319.481934	153.980000
319.575226	154.060000
319.668518	154.580000
319.761810	154.460000
319.855103	154.640000
319.948395	154.680000
320.041687	154.900000
320.134979	154.700000
320.228271	154.500000
320.321564	154.280000
320.414856	154.020000
320.508148	153.680000
320.601440	153.800000
320.694763	153.500000
320.788025	154.260000
320.881348	154.040000
320.974640	154.140000
321.067963	153.800000
321.161224	154.000000
321.254547	153.220000
321.347839	154.080000
321.441162	153.900000
321.534454	154.420000
321.627747	154.460000
321.721069	155.220000
321.814362	154.860000
321.907654	155.360000
322.000946	155.160000
322.094269	155.720000
322.187561	155.140000
322.280884	155.380000
322.374176	155.340000
322.467468	155.820000
322.560791	155.400000
322.654083	155.820000
322.747406	155.740000
322.840698	155.880000
322.934021	156.160000
323.027344	156.580000
323.120636	156.200000
323.213959	156.120000
323.307251	155.420000
323.400574	154.840000
323.493866	153.980000
323.587219	154.160000
323.680511	154.380000
323.773834	154.760000
323.867157	155.080000
323.960449	155.340000
324.053772	155.060000
324.147095	154.720000
324.240387	155.520000
324.333710	155.360000
324.427032	155.380000
324.520355	155.580000
324.613647	155.420000
324.706970	154.840000
324.800293	154.680000
324.893616	155.100000
324.986938	155.280000
325.080231	154.920000
325.173553	155.180000
325.266876	155.940000
325.360199	155.720000
325.453522	155.240000
325.546875	155.180000
325.640167	155.420000
325.733521	155.120000
325.826813	155.440000
325.920166	155.220000
326.013489	155.320000
326.106812	154.340000
326.200134	153.900000
326.293457	153.100000
326.386780	153.480000
326.480103	153.520000
326.573425	153.480000
326.666748	153.580000
326.760071	154.100000
326.853424	154.360000
326.946747	154.540000
327.040070	155.680000
327.133392	155.400000
327.226715	155.100000
327.320068	154.720000
327.413391	155.320000
327.506714	154.280000
327.600037	154.300000
327.693390	154.600000
327.786713	154.580000
327.880066	154.220000
327.973358	154.560000
328.066742	155.240000
328.160034	155.580000
328.253418	155.840000
328.346710	155.800000
328.440063	155.600000
328.533417	155.040000
328.626740	154.860000
328.720093	154.580000
328.813416	154.460000
328.906769	154.600000
329.000092	154.860000
329.093445	154.500000
329.186768	154.560000
329.280121	154.960000
329.373444	155.200000
329.466797	155.180000
329.560120	155.400000
329.653473	155.660000
329.746796	155.160000
329.840149	155.060000
329.933502	154.540000
330.026825	154.320000
330.120178	153.960000
330.213562	153.720000
330.306854	153.760000
330.400238	154.280000
330.493561	154.120000
330.586945	155.040000
330.680237	155.380000
330.773621	155.020000
330.866974	154.980000
330.960327	155.300000
331.053680	154.640000
331.147003	154.840000
331.240356	155.320000
331.333710	155.320000
331.427063	155.080000
331.520416	154.820000
331.613770	154.540000
331.707123	154.580000
331.800476	154.600000
331.893829	155.540000
331.987152	156.100000
332.080505	156.220000
332.173859	156.000000
332.267212	155.460000
332.360565	154.640000
332.453918	153.900000
332.547333	153.480000
332.640656	153.380000
332.734039	153.960000
332.827362	154.180000
332.920746	154.700000
333.014069	155.360000
333.107452	156.000000
333.200806	156.220000
333.294159	155.940000
333.387543	155.600000
333.480896	154.900000
333.574249	154.140000
333.667603	153.580000
333.760956	153.660000
333.854340	153.660000
333.947693	154.080000
334.041046	154.200000
334.134430	154.460000
334.227783	154.220000
334.321136	154.520000
334.414520	154.280000
334.507874	154.560000
334.601227	154.540000
334.694611	154.720000
334.787964	154.680000
334.881348	154.920000
334.974701	154.700000
335.068085	154.280000
335.161438	154.280000
335.254822	154.120000
335.348175	154.440000
335.441559	154.120000
335.534943	155.040000
335.628296	155.160000
335.721680	154.960000
335.815033	154.860000
335.908417	155.300000
336.001770	155.180000
336.095154	155.020000
336.188538	154.900000
336.281891	154.220000
336.375275	153.680000
336.468658	153.340000
336.562012	153.460000
336.655396	153.800000
336.748779	154.680000
336.842133	155.220000
336.935516	155.460000
337.028900	155.160000
337.122284	155.080000
337.215637	154.680000
337.309021	154.260000
337.402435	153.640000
337.495789	153.600000
337.589203	153.540000
337.682526	153.440000
337.775940	153.920000
337.869324	154.260000
337.962708	154.100000
338.056091	154.700000
338.149475	154.200000
338.242859	154.220000
338.336243	154.100000
338.429626	154.560000
338.523010	154.040000
338.616394	154.460000
338.709778	154.120000
338.803162	154.180000
338.896545	154.000000
338.989929	153.680000
339.083313	153.780000
339.176697	153.380000
339.270081	153.180000
339.363464	153.940000
339.456848	154.580000
339.550232	154.220000
339.643616	154.580000
339.737030	154.740000
339.830383	153.980000
339.923828	154.000000
340.017181	154.320000
340.110596	154.740000
340.203949	154.640000
340.297363	154.340000
340.390778	154.320000
340.484161	154.080000
340.577545	153.860000
340.670959	154.240000
340.764343	154.300000
340.857727	154.120000
340.951111	154.060000
341.044525	154.160000
341.137909	153.460000
341.231293	153.540000
341.324707	153.020000
341.418091	153.860000
341.511505	153.940000
341.604889	154.340000
341.698303	154.860000
341.791687	155.460000
341.885071	154.800000
341.978485	154.080000
342.071899	154.600000
342.165283	154.540000
342.258698	154.660000
342.352081	155.260000
342.445496	156.000000
342.538879	155.540000
342.632324	155.040000
342.725708	154.740000
342.819122	154.100000
342.912506	153.620000
343.005920	153.400000
343.099335	154.140000
343.192719	153.900000
343.286133	153.820000
343.379547	154.100000
343.472931	154.320000
343.566345	153.660000
343.659760	153.940000
343.753143	153.860000
343.846558	153.840000
343.939972	153.720000
344.033386	154.340000
344.126770	154.180000
344.220184	154.180000
344.313599	154.840000
344.407043	154.800000
344.500427	154.300000
344.593872	155.020000
344.687225	155.220000
344.780670	154.420000
344.874054	154.640000
344.967499	155.060000
345.060913	154.440000
345.154327	154.080000
345.247742	153.580000
345.341156	153.160000
345.434570	152.760000
345.527985	152.840000
345.621399	153.060000
345.714813	153.560000
345.808228	154.060000
345.901642	153.740000
345.995056	153.300000
346.088470	153.560000
346.181885	153.600000
346.275299	153.480000
346.368713	153.560000
346.462128	153.520000
346.555573	153.500000
346.648987	153.680000
346.742401	153.180000
346.835815	153.820000
346.929260	154.040000
347.022644	153.880000
347.116119	153.940000
347.209503	154.500000
347.302948	154.880000
347.396362	155.460000
347.489807	155.560000
347.583221	155.780000
347.676636	155.420000
347.770050	154.420000
347.863495	153.560000
347.956909	153.440000
348.050323	152.900000
348.143768	152.840000
348.237183	152.940000
348.330597	153.700000
348.424042	154.000000
348.517456	154.600000
348.610901	155.000000
348.704315	154.800000
348.797760	154.320000
348.891174	153.720000
348.984619	153.060000
349.078033	153.200000
349.171448	154.360000
349.264923	154.140000
349.358337	154.380000
349.451782	154.380000
349.545197	153.660000
349.638641	152.900000
349.732086	152.400000
349.825500	152.920000
349.918945	152.720000
350.012390	153.600000
350.105804	153.880000
350.199249	154.740000
350.292664	154.940000
350.386108	155.340000
350.479553	155.540000
350.572968	155.100000
350.666412	155.100000
350.759857	154.780000
350.853302	154.880000
350.946716	154.300000
351.040161	154.620000
351.133606	154.600000
351.227081	154.380000
351.320465	155.400000
351.413940	155.320000
351.507355	155.700000
351.600830	155.980000
351.694244	155.600000
351.787720	154.860000
351.881104	155.040000
351.974579	154.420000
352.067993	154.940000
352.161469	155.320000
352.254883	154.540000
352.348358	154.400000
352.441803	154.480000
352.535248	154.020000
352.628693	154.240000
352.722137	154.540000
352.815582	154.780000
352.909027	154.920000
353.002472	154.540000
353.095917	154.420000
353.189362	154.800000
353.282806	154.740000
353.376251	154.240000
353.469696	153.820000
353.563141	154.260000
353.656586	153.740000
353.750061	152.920000
353.843475	153.360000
353.936981	154.220000
354.030396	153.440000
354.123871	153.720000
354.217285	154.960000
354.310760	155.320000
354.404175	155.120000
354.497681	155.000000
354.591095	154.940000
354.684570	154.100000
354.777985	153.380000
354.871490	153.220000
354.964935	154.100000
355.058380	154.240000
355.151855	154.100000
355.245300	154.760000
355.338745	154.960000
355.432220	154.360000
355.525665	153.660000
355.619110	154.360000
355.712585	153.900000
355.806030	153.900000
355.899475	153.980000
355.992950	154.600000
356.086426	154.960000
356.179871	155.200000
356.273346	155.140000
356.366791	155.280000
356.460266	155.480000
356.553711	154.420000
356.647186	154.300000
356.740631	153.920000
356.834106	153.460000
356.927551	153.400000
357.021027	153.720000
357.114471	153.480000
357.207947	153.760000
357.301422	154.420000
357.394867	154.440000
357.488342	154.800000
357.581818	155.280000
357.675262	155.620000
357.768738	155.180000
357.862213	154.580000
357.955658	154.580000
358.049133	154.380000
358.142609	154.460000
358.236053	154.440000
358.329529	154.740000
358.423035	154.980000
358.516449	154.760000
358.609955	154.800000
358.703400	155.380000
358.796906	155.700000
358.890350	155.040000
358.983826	155.600000
359.077271	154.700000
359.170776	154.540000
359.264221	154.000000
359.357727	154.240000
359.451172	154.140000
359.544647	154.500000
359.638123	154.240000
359.731598	154.860000
359.825073	155.120000
359.918549	155.000000
360.012024	155.260000
360.105499	154.780000
360.198975	154.760000
360.292450	154.640000
360.385925	154.900000
360.479401	154.160000
360.572876	154.700000
360.666351	154.620000
360.759857	154.480000
360.853302	154.040000
360.946808	154.220000
361.040253	154.440000
361.133759	154.320000
361.227203	154.600000
361.320709	154.480000
361.414154	155.120000
361.507660	154.980000
361.601105	155.520000
361.694641	155.820000
361.788086	155.640000
361.881592	155.860000
361.975067	155.420000
362.068542	155.500000
362.162018	155.080000
362.255524	155.080000
362.348999	154.900000
362.442474	155.540000
362.535950	154.960000
362.629456	154.880000
362.722931	155.080000
362.816406	155.240000
362.909882	155.440000
363.003387	155.100000
363.096863	155.460000
363.190338	155.060000
363.283875	154.620000
363.377319	154.080000
363.470825	154.640000
363.564301	154.080000
363.657806	154.880000
363.751282	154.520000
363.844788	155.620000
363.938232	155.200000
364.031769	155.720000
364.125214	155.600000
364.218750	156.580000
364.312225	155.100000
364.405731	155.140000
364.499207	154.540000
364.592712	154.380000
364.686188	153.740000
364.779694	154.020000
364.873169	154.020000
364.966675	153.920000
365.060150	153.860000
365.153656	154.400000
365.247131	154.300000
365.340637	154.680000
365.434143	155.400000
365.527618	155.220000
365.621155	154.460000
365.714600	154.580000
365.808136	154.540000
365.901611	153.280000
365.995117	153.280000
366.088593	153.460000
366.182129	153.460000
366.275604	153.440000
366.369110	154.140000
366.462585	154.560000
366.556122	155.220000
366.649567	155.160000
366.743103	155.180000
366.836609	154.980000
366.930115	154.780000
367.023590	154.740000
367.117096	154.660000
367.210602	154.580000
367.304108	155.300000
367.397614	155.680000
367.491119	155.400000
367.584595	155.820000
367.678101	156.300000
367.771606	155.820000
367.865112	155.540000
367.958649	155.080000
368.052124	154.700000
368.145660	154.040000
368.239136	154.400000
368.332672	154.420000
368.426147	154.940000
368.519684	155.020000
368.613159	155.320000
368.706696	154.900000
368.800171	154.820000
368.893707	154.440000
368.987183	154.260000
369.080719	154.200000
369.174225	154.120000
369.267731	154.140000
369.361237	154.100000
369.454742	154.280000
369.548248	154.780000
369.641754	154.560000
369.735260	154.580000
369.828766	153.940000
369.922272	154.460000
370.015808	153.760000
370.109314	153.740000
370.202820	153.420000
370.296356	154.620000
370.389832	154.300000
370.483368	154.180000
370.576874	154.220000
370.670410	154.760000
370.763885	153.760000
370.857422	153.800000
370.950928	153.700000
371.044464	154.700000
371.137939	154.600000
371.231476	155.280000
371.324982	155.720000
371.418518	156.100000
371.512024	155.640000
371.605560	155.320000
371.699066	155.420000
371.792572	154.780000
371.886108	155.140000
371.979614	155.100000
372.073120	155.780000
372.166656	155.360000
372.260162	155.740000
372.353668	155.220000
372.447205	154.800000
372.540710	154.480000
372.634277	154.460000
372.727753	154.460000
372.821320	154.760000
372.914795	155.000000
373.008362	154.560000
373.101837	154.820000
373.195404	154.660000
373.288879	154.400000
373.382446	155.120000
373.475922	155.640000
373.569489	156.180000
373.662964	156.500000
373.756531	156.760000
373.850037	156.380000
373.943573	156.080000
374.037109	154.980000
374.130615	154.900000
374.224152	154.660000
374.317657	154.480000
374.411194	155.300000
374.504730	155.420000
374.598236	155.260000
374.691772	154.880000
374.785309	154.880000
374.878815	153.580000
374.972351	154.220000
375.065887	154.120000
375.159454	155.120000
375.252930	155.020000
375.346497	155.540000
375.440002	155.860000
375.533569	155.740000
375.627045	154.700000
375.720612	155.000000
375.814117	155.300000
375.907684	154.660000
376.001160	154.580000
376.094727	154.400000
376.188232	154.860000
376.281799	154.580000
376.375336	154.360000
376.468872	155.160000
376.562408	155.720000
376.655914	154.900000
376.749451	154.960000
376.842987	155.280000
376.936523	154.840000
377.030060	154.800000
377.123596	155.200000
377.217133	154.680000
377.310669	154.620000
377.404205	154.800000
377.497772	155.140000
377.591278	154.700000
377.684845	155.640000
377.778351	156.220000
377.871918	155.780000
377.965424	155.100000
378.058990	155.180000
378.152496	154.640000
378.246063	154.600000
378.339569	155.000000
378.433136	154.880000
378.526642	155.200000
378.620209	155.460000
378.713745	154.940000
378.807312	155.100000
378.900848	155.480000
378.994385	155.460000
379.087921	154.520000
379.181458	155.060000
379.274994	154.160000
379.368530	153.940000
379.462097	154.020000
379.555634	154.640000
379.649170	153.760000
379.742706	154.140000
379.836273	154.420000
379.929810	154.080000
380.023376	153.880000
380.116882	154.160000
380.210449	153.840000
380.303986	153.480000
380.397552	153.000000
380.491058	153.460000
380.584656	153.120000
380.678162	153.380000
380.771729	153.600000
380.865265	154.480000
380.958832	154.460000
381.052368	155.100000
381.145935	155.660000
381.239471	155.980000
381.333008	155.700000
381.426575	155.500000
381.520111	155.520000
381.613647	155.760000
381.707214	155.620000
381.800751	155.180000
381.894318	155.600000
381.987854	154.880000
382.081421	154.300000
382.174988	154.500000
382.268524	154.540000
382.362091	154.160000
382.455627	155.120000
382.549194	154.700000
382.642731	153.660000
382.736298	153.500000
382.829834	153.300000
382.923401	153.680000
383.016937	154.140000
383.110504	155.100000
383.204041	155.440000
383.297607	156.060000
383.391174	154.680000
383.484741	155.240000
383.578278	154.580000
383.671844	154.020000
383.765411	152.960000
383.858948	154.060000
383.952515	153.560000
384.046051	154.120000
384.139618	155.000000
384.233185	155.680000
384.326721	155.320000
384.420288	155.740000
384.513855	155.420000
384.607422	155.560000
384.700989	155.860000
384.794525	155.360000
384.888123	155.160000
384.981659	155.560000
385.075226	154.940000
385.168762	154.200000
385.262360	154.380000
385.355896	153.260000
385.449463	153.100000
385.542999	153.180000
385.636597	153.920000
385.730164	154.060000
385.823730	154.460000
385.917267	154.120000
386.010834	154.440000
386.104401	154.640000
386.197968	154.840000
386.291534	155.160000
386.385101	155.680000
386.478668	155.760000
386.572235	155.120000
386.665802	154.660000
386.759338	154.420000
386.852905	154.140000
386.946472	153.880000
387.040070	154.220000
387.133606	154.300000
387.227203	154.520000
387.320740	154.800000
387.414337	154.620000
387.507874	154.640000
387.601471	154.840000
387.695007	154.340000
387.788605	154.040000
387.882141	154.320000
387.975739	154.340000
388.069275	154.280000
388.162872	154.940000
388.256439	154.860000
388.350037	154.560000
388.443604	154.240000
388.537170	154.240000
388.630737	154.460000
388.724304	154.560000
388.817871	154.540000
388.911438	154.700000
389.005005	154.620000
389.098602	154.680000
389.192169	154.760000
389.285736	155.360000
389.379333	155.200000
389.472870	155.100000
389.566467	154.920000
389.660034	154.880000
389.753632	154.200000
389.847168	154.740000
389.940765	154.840000
390.034332	155.100000
390.127930	154.660000
390.221466	154.680000
390.315063	153.860000
390.408630	153.220000
390.502228	152.060000
390.595795	152.640000
390.689362	152.760000
390.782959	153.520000
390.876526	154.440000
390.970093	154.600000
391.063690	155.080000
391.157257	155.240000
391.250824	155.400000
391.344421	155.160000
391.437988	155.820000
391.531555	155.180000
391.625153	155.000000
391.718750	154.720000
391.812317	154.400000
391.905914	153.720000
391.999481	153.840000
392.093079	154.100000
392.186615	154.500000
392.280243	154.740000
392.373779	155.300000
392.467407	155.800000
392.560944	155.560000
392.654572	154.660000
392.748108	154.600000
392.841736	154.500000
392.935303	153.780000
393.028900	153.740000
393.122467	153.880000
393.216064	153.600000
393.309631	152.980000
393.403229	153.080000
393.496796	152.920000
393.590393	152.340000
393.683990	152.780000
393.777557	153.780000
393.871155	153.820000
393.964722	154.300000
394.058350	154.680000
394.151917	154.600000
394.245514	154.380000
394.339081	154.760000
394.432678	155.200000
394.526245	155.480000
394.619873	155.000000
394.713409	154.880000
394.807037	154.620000
394.900604	154.240000
394.994202	154.140000
395.087769	154.800000
395.181396	154.560000
395.274994	155.160000
395.368561	154.500000
395.462158	154.760000
395.555756	154.120000
395.649353	154.600000
395.742920	154.220000
395.836517	155.180000
395.930115	154.640000
396.023712	154.900000
396.117279	154.800000
396.210876	154.220000
396.304474	153.960000
396.398071	154.280000
396.491669	154.740000
396.585266	154.220000
396.678833	154.160000
396.772461	154.280000
396.866028	153.920000
396.959656	153.700000
397.053223	154.180000
397.146851	153.900000
397.240417	153.300000
397.334015	154.260000
397.427582	154.320000
397.521210	154.100000
397.614807	154.820000
397.708405	155.360000
397.802002	154.900000
397.895599	155.300000
397.989197	155.200000
398.082794	154.760000
398.176392	154.580000
398.269989	154.340000
398.363586	154.140000
398.457184	155.180000
398.550781	155.580000
398.644379	155.620000
398.737976	155.880000
398.831573	156.040000
398.925201	155.520000
399.018768	156.080000
399.112396	157.040000
399.205963	158.960000
399.299591	161.520000
399.393158	164.980000
399.486786	170.320000
399.580353	177.520000
399.673981	189.960000
399.767578	210.280000
399.861206	239.300000
399.954773	271.540000
400.048401	300.400000
400.141998	315.860000
400.235596	314.980000
400.329193	295.480000
400.422791	264.940000
400.516418	232.240000
400.610016	205.060000
400.703613	185.720000
400.797211	173.460000
400.890808	167.400000
400.984436	164.340000
401.078033	162.680000
401.171631	160.160000
401.265259	159.660000
401.358826	159.100000
401.452484	158.460000
401.546051	158.120000
401.639679	158.040000
401.733246	157.960000
401.826904	157.440000
401.920471	156.160000
402.014099	155.420000
402.107697	155.220000
402.201324	155.180000
402.294891	155.180000
402.388550	156.140000
402.482147	156.440000
402.575745	156.060000
402.669373	155.420000
402.762970	154.900000
402.856567	154.240000
402.950195	154.300000
403.043793	154.220000
403.137390	154.880000
403.231018	154.280000
403.324615	155.300000
403.418243	154.740000
403.511841	155.220000
403.605469	154.760000
403.699066	155.420000
403.792694	155.000000
403.886292	155.280000
403.979919	154.940000
404.073517	154.720000
404.167145	155.080000
404.260712	154.820000
404.354370	154.580000
404.447937	154.780000
404.541595	154.860000
404.635162	154.760000
404.728821	155.260000
404.822418	154.940000
404.916046	154.840000
405.009644	155.140000
405.103271	155.420000
405.196899	154.820000
405.290497	155.200000
405.384125	155.380000
405.477722	155.140000
405.571350	154.600000
405.664948	154.700000
405.758575	154.620000
405.852203	154.140000
405.945801	154.000000
406.039429	153.840000
406.133057	153.700000
406.226654	153.840000
406.320312	154.220000
406.413879	154.520000
406.507538	154.760000
406.601135	154.400000
406.694763	154.860000
406.788361	154.420000
406.882019	154.420000
406.975586	155.040000
407.069244	155.820000
407.162872	155.280000
407.256470	155.400000
407.350098	154.960000
407.443726	154.200000
407.537323	153.860000
407.630951	154.320000
407.724579	154.160000
407.818207	154.660000
407.911804	154.500000
408.005432	154.300000
408.099060	154.380000
408.192688	154.940000
408.286285	154.780000
408.379913	154.620000
408.473572	154.720000
408.567169	153.980000
408.660828	153.840000
408.754395	153.400000
408.848053	153.740000
408.941650	154.040000
409.035309	153.760000
409.128906	153.800000
409.222565	154.140000
409.316132	154.200000
409.409790	153.840000
409.503387	153.860000
409.597046	153.620000
409.690674	154.000000
409.784302	153.960000
409.877930	153.880000
409.971558	154.100000
410.065186	154.080000
410.158783	153.620000
410.252411	153.740000
410.346039	153.900000
410.439667	153.920000
410.533295	154.180000
410.626923	154.540000
410.720551	154.060000
410.814209	154.880000
410.907806	154.900000
411.001465	153.920000
411.095062	153.980000
411.188721	154.380000
411.282318	153.580000
411.375977	153.340000
411.469574	154.160000
411.563232	153.720000
411.656830	153.580000
411.750488	153.340000
411.844086	153.580000
411.937744	153.980000
412.031372	153.860000
412.125000	153.760000
412.218628	154.260000
412.312256	154.940000
412.405884	155.260000
412.499512	155.460000
412.593170	155.820000
412.686798	155.820000
412.780426	155.000000
412.874054	154.560000
412.967682	154.280000
413.061310	154.720000
413.154968	154.720000
413.248566	155.260000
413.342224	155.060000
413.435852	155.380000
413.529510	154.540000
413.623108	153.740000
413.716766	153.300000
413.810364	153.780000
413.904022	153.460000
413.997650	153.500000
414.091309	154.620000
414.184906	154.520000
414.278564	154.040000
414.372192	154.520000
414.465851	154.680000
414.559479	153.960000
414.653107	154.760000
414.746735	154.300000
414.840393	154.360000
414.934021	154.700000
415.027649	154.540000
415.121277	154.220000
415.214935	155.020000
415.308563	154.820000
415.402191	154.040000
415.495850	154.280000
415.589478	154.320000
415.683136	153.660000
415.776733	154.000000
415.870422	154.860000
415.964020	154.280000
416.057678	154.000000
416.151306	154.440000
416.244965	153.980000
416.338562	153.460000
416.432251	154.600000
416.525848	155.440000
416.619507	155.160000
416.713165	155.700000
416.806793	155.460000
416.900421	155.200000
416.994080	154.300000
417.087708	154.280000
417.181366	153.560000
417.274994	153.820000
417.368622	153.940000
417.462280	154.320000
417.555908	154.500000
417.649567	154.660000
417.743195	154.840000
417.836853	154.620000
417.930481	154.840000
418.024170	154.540000
418.117767	155.040000
418.211426	155.240000
418.305054	155.400000
418.398712	154.680000
418.492340	155.020000
418.585999	155.140000
418.679626	154.900000
418.773285	154.740000
418.866913	155.440000
418.960571	155.740000
419.054230	155.740000
419.147858	156.060000
419.241516	156.320000
419.335144	155.880000
419.428802	155.700000
419.522461	155.060000
419.616089	154.380000
419.709747	154.560000
419.803375	154.680000
419.897034	154.300000
419.990662	154.300000
420.084320	155.020000
420.177979	155.200000
420.271606	155.180000
420.365295	155.900000
420.458893	156.400000
420.552582	156.400000
420.646210	156.000000
420.739868	155.720000
420.833496	155.160000
420.927155	154.580000
421.020782	153.880000
421.114471	153.080000
421.208069	153.380000
421.301758	153.960000
421.395386	154.320000
421.489044	154.440000
421.582703	154.740000
421.676361	155.280000
421.769989	154.580000
421.863647	155.100000
421.957306	155.560000
422.050934	155.880000
422.144592	155.580000
422.238251	155.440000
422.331909	154.780000
422.425537	154.440000
422.519196	154.460000
422.612854	154.140000
422.706543	154.240000
422.800140	154.600000
422.893829	154.380000
422.987457	153.940000
423.081146	154.040000
423.174744	154.620000
423.268433	154.120000
423.362061	154.300000
423.455750	154.760000
423.549347	154.540000
423.643036	153.800000
423.736664	154.440000
423.830353	154.440000
423.924011	154.540000
424.017639	154.420000
424.111298	154.520000
424.204956	153.960000
424.298615	154.500000
424.392273	154.220000
424.485931	154.500000
424.579559	154.880000
424.673218	155.060000
424.766876	154.540000
424.860535	154.140000
424.954193	153.980000
425.047882	154.100000
425.141510	154.240000
425.235199	154.400000
425.328796	154.660000
425.422485	154.620000
425.516113	154.120000
425.609802	154.040000
425.703430	154.280000
425.797119	154.280000
425.890747	154.820000
425.984436	155.060000
426.078064	155.140000
426.171753	154.740000
426.265411	154.280000
426.359070	153.980000
426.452728	153.900000
426.546356	153.680000
426.640015	153.720000
426.733673	154.260000
426.827332	154.100000
426.920990	154.900000
427.014648	154.800000
427.108307	155.080000
427.201965	155.740000
427.295624	156.100000
427.389282	155.160000
427.482941	155.380000
427.576630	155.240000
427.670258	154.280000
427.763947	153.960000
427.857574	154.260000
427.951263	154.080000
428.044922	153.780000
428.138611	154.080000
428.232239	154.380000
428.325928	154.760000
428.419556	155.340000
428.513245	155.320000
428.606903	155.460000
428.700562	155.280000
428.794220	154.300000
428.887878	153.780000
428.981537	154.200000
429.075195	154.400000
429.168854	154.700000
429.262512	155.480000
429.356201	155.680000
429.449860	155.480000
429.543518	155.320000
429.637177	155.560000
429.730835	155.420000
429.824493	155.300000
429.918182	155.540000
430.011810	155.160000
430.105530	154.180000
430.199158	154.340000
430.292847	154.220000
430.386475	153.900000
430.480164	153.880000
430.573792	153.780000
430.667511	153.580000
430.761139	153.840000
430.854828	154.480000
430.948456	154.520000
431.042145	155.460000
431.135834	155.080000
431.229492	155.100000
431.323151	155.040000
431.416809	155.080000
431.510468	154.700000
431.604156	154.980000
431.697815	155.020000
431.791473	154.280000
431.885132	154.180000
431.978821	154.780000
432.072479	155.000000
432.166138	155.360000
432.259827	155.660000
432.353485	155.940000
432.447174	155.840000
432.540802	155.540000
432.634491	155.660000
432.728149	156.080000
432.821838	156.640000
432.915466	155.960000
433.009186	156.300000
433.102814	155.740000
433.196503	155.240000
433.290131	155.140000
433.383850	155.440000
433.477509	155.520000
433.571167	156.380000
433.664856	156.960000
433.758514	157.320000
433.852173	157.560000
433.945862	157.360000
434.039520	156.740000
434.133179	156.220000
434.226868	155.340000
434.320526	154.700000
434.414185	155.240000
434.507874	154.580000
434.601562	154.840000
434.695221	154.900000
434.788910	155.300000
434.882538	155.020000
434.976257	155.120000
435.069885	155.040000
435.163574	155.060000
435.257233	154.520000
435.350922	154.420000
435.444580	154.140000
435.538269	154.040000
435.631897	154.500000
435.725616	155.420000
435.819275	156.040000
435.912964	156.720000
436.006622	156.840000
436.100311	156.700000
436.193970	155.860000
436.287628	155.200000
436.381317	154.920000
436.474976	154.600000
436.568665	154.100000
436.662323	154.260000
436.756012	154.260000
436.849670	154.640000
436.943390	154.720000
437.037018	155.000000
437.130737	154.880000
437.224365	154.820000
437.318085	154.620000
437.411713	154.620000
437.505432	155.120000
437.599060	155.900000
437.692780	156.560000
437.786407	156.520000
437.880127	156.500000
437.973755	155.600000
438.067474	154.980000
438.161133	154.540000
438.254822	154.840000
438.348480	154.800000
438.442169	155.680000
438.535828	156.060000
438.629517	155.560000
438.723175	154.940000
438.816864	155.480000
438.910553	154.700000
439.004211	154.220000
439.097900	154.380000
439.191559	154.680000
439.285248	153.560000
439.378906	154.080000
439.472626	154.000000
439.566284	153.680000
439.659973	153.760000
439.753632	154.220000
439.847321	154.300000
439.940979	154.640000
440.034698	155.020000
440.128326	154.520000
440.222046	154.400000
440.315674	153.700000
440.409393	153.620000
440.503082	153.460000
440.596741	153.880000
440.690430	154.080000
440.784088	154.000000
440.877777	153.640000
440.971466	153.800000
441.065125	153.580000
441.158813	153.460000
441.252502	153.800000
441.346161	154.000000
441.439850	154.300000
441.533539	154.220000
441.627197	154.660000
441.720886	154.740000
441.814606	155.300000
441.908234	155.500000
442.001953	155.500000
442.095612	155.260000
442.189301	155.240000
442.282959	154.860000
442.376678	153.940000
442.470306	154.500000
442.564026	154.440000
442.657684	154.520000
442.751404	154.460000
442.845032	155.580000
442.938751	155.000000
443.032440	155.120000
443.126099	154.620000
443.219788	155.140000
443.313477	154.580000
443.407166	155.080000
443.500824	154.960000
443.594513	155.460000
443.688202	154.840000
443.781891	154.240000
443.875549	153.540000
443.969238	153.700000
444.062927	153.680000
444.156647	153.720000
444.250275	154.420000
444.343994	154.940000
444.437653	154.940000
444.531372	154.820000
444.625031	154.920000
444.718719	154.260000
444.812378	154.020000
444.906097	153.840000
444.999756	153.440000
445.093445	153.380000
445.187103	153.620000
445.280823	154.140000
445.374512	153.600000
445.468201	153.740000
445.561859	153.580000
445.655548	153.840000
445.749237	153.320000
445.842926	153.700000
445.936615	154.380000
446.030304	154.300000
446.123962	154.300000
446.217651	154.080000
446.311340	154.380000
446.405029	153.780000
446.498749	153.820000
446.592407	153.440000
446.686096	154.100000
446.779755	153.940000
446.873474	153.960000
446.967133	153.960000
447.060852	153.820000
447.154510	153.400000
447.248230	153.400000
447.341858	153.820000
447.435577	153.600000
447.529236	153.440000
447.622955	153.500000
447.716644	153.660000
447.810333	153.540000
447.904022	154.120000
447.997711	154.160000
448.091400	154.500000
448.185059	154.120000
448.278748	154.300000
448.372437	153.840000
448.466125	154.380000
448.559814	154.300000
448.653503	154.920000
448.747192	154.980000
448.840912	155.480000
448.934570	155.420000
449.028290	155.760000
449.121948	155.340000
449.215637	154.820000
449.309296	154.580000
449.403015	154.520000
449.496674	153.880000
449.590393	154.080000
449.684052	153.980000
449.777771	154.720000
449.871429	154.040000
449.965149	154.120000
450.058838	154.420000
450.152527	154.880000
450.246216	154.280000
450.339905	155.040000
450.433594	154.780000
450.527283	155.000000
450.620972	154.620000
450.714661	155.020000
450.808350	154.880000
450.902039	155.440000
450.995728	154.820000
451.089417	154.620000
451.183105	154.240000
451.276794	154.840000
451.370514	154.340000
451.464172	153.700000
451.557892	153.840000
451.651550	154.020000
451.745270	153.280000
451.838928	152.660000
451.932648	153.180000
452.026306	153.540000
452.120026	152.920000
452.213684	153.300000
452.307404	153.960000
452.401062	154.060000
452.494781	154.320000
452.588470	154.700000
452.682159	154.440000
452.775848	154.760000
452.869537	154.220000
452.963226	153.700000
453.056915	153.560000
453.150604	153.440000
453.244293	153.460000
453.337982	154.240000
453.431671	154.520000
453.525360	155.100000
453.619049	155.340000
453.712769	154.980000
453.806427	154.560000
453.900146	154.160000
453.993805	153.760000
454.087555	153.960000
454.181213	154.340000
454.274933	154.420000
454.368591	154.580000
454.462311	154.420000
454.555969	154.220000
454.649689	154.920000
454.743347	155.000000
454.837067	155.660000
454.930756	156.480000
455.024445	156.300000
455.118134	155.540000
455.211853	155.560000
455.305542	155.060000
455.399231	154.520000
455.492920	154.680000
455.586609	154.380000
455.680298	154.640000
455.773987	154.300000
455.867676	154.160000
455.961365	154.580000
456.055084	154.480000
456.148773	153.820000
456.242493	154.000000
456.336151	153.920000
456.429871	153.580000
456.523529	154.260000
456.617249	154.380000
456.710907	155.160000
456.804626	155.220000
456.898315	154.980000
456.992035	154.680000
457.085693	154.480000
457.179413	153.440000
457.273102	154.460000
457.366791	154.640000
457.460480	154.840000
457.554199	155.960000
457.647888	156.320000
457.741577	155.580000
457.835266	155.460000
457.928955	155.480000
458.022644	155.080000
458.116364	155.100000
458.210052	154.540000
458.303741	154.760000
458.397461	153.980000
458.491119	153.380000
458.584839	153.520000
458.678528	153.460000
458.772247	153.000000
458.865906	153.620000
458.959625	154.880000
459.053284	154.780000
459.147003	154.760000
459.240692	155.700000
459.334412	155.520000
459.428070	154.540000
459.521790	154.560000
459.615479	154.860000
459.709198	154.900000
459.802887	154.680000
459.896576	154.460000
459.990265	154.320000
460.083954	154.580000
460.177673	153.720000
460.271362	153.860000
460.365051	153.900000
460.458740	153.560000
460.552429	152.860000
460.646149	153.140000
460.739838	152.840000
460.833527	153.100000
460.927246	153.080000
461.020905	153.180000
461.114655	153.140000
461.208313	153.320000
461.302032	152.600000
461.395691	153.240000
461.489441	153.440000
461.583099	153.040000
461.676819	153.160000
461.770477	153.940000
461.864197	153.180000
461.957916	153.100000
462.051605	152.900000
462.145294	153.640000
462.238983	153.260000
462.332703	154.160000
462.426392	154.920000
462.520081	155.160000
462.613770	154.700000
462.707489	154.980000
462.801178	154.700000
462.894867	154.240000
462.988556	154.300000
463.082275	154.400000
463.175964	153.960000
463.269684	153.860000
463.363342	153.920000
463.457092	153.260000
463.550751	153.360000
463.644470	153.700000
463.738129	153.400000
463.831879	153.340000
463.925537	154.460000
464.019257	154.180000
464.112946	154.300000
464.206665	154.500000
464.300323	154.140000
464.394043	153.680000
464.487762	153.600000
464.581451	153.620000
464.675140	153.300000
464.768829	153.820000
464.862549	153.880000
464.956238	154.000000
465.049927	154.160000
465.143646	154.620000
465.237335	154.140000
465.331024	154.820000
465.424713	154.660000
465.518433	154.640000
465.612152	154.520000
465.705811	154.480000
465.799561	153.920000
465.893219	153.780000
465.986938	153.480000
466.080597	153.220000
466.174347	153.960000
466.268005	153.900000
466.361725	153.780000
466.455414	154.060000
466.549133	154.080000
466.642792	154.020000
466.736542	153.920000
466.830231	154.280000
466.923920	153.900000
467.017609	154.160000
467.111328	153.580000
467.205017	153.760000
467.298706	153.720000
467.392426	153.980000
467.486115	154.200000
467.579803	154.220000
467.673523	154.280000
467.767212	154.560000
467.860901	154.580000
467.954651	154.360000
468.048309	154.880000
468.142029	154.920000
468.235718	154.700000
468.329437	154.220000
468.423096	154.240000
468.516846	153.580000
468.610504	153.040000
468.704224	152.540000
468.797913	152.520000
468.891632	152.820000
468.985291	152.980000
469.079010	153.460000
469.172729	153.440000
469.266418	153.980000
469.360107	153.680000
469.453827	153.580000
469.547516	153.500000
469.641205	153.860000
469.734924	154.020000
469.828613	154.600000
469.922302	154.860000
470.016022	154.760000
470.109711	154.540000
470.203430	153.760000
470.297150	152.700000
470.390808	152.800000
470.484558	152.860000
470.578217	153.280000
470.671936	154.040000
470.765625	154.900000
470.859344	154.320000
470.953003	154.700000
471.046753	154.180000
471.140411	153.560000
471.234131	153.420000
471.327820	154.260000
471.421539	153.980000
471.515228	153.880000
471.608948	154.080000
471.702637	153.560000
471.796326	152.860000
471.890045	152.960000
471.983734	153.060000
472.077423	152.760000
472.171143	153.120000
472.264832	153.200000
472.358521	153.100000
472.452240	153.080000
472.545929	153.700000
472.639648	153.600000
472.733337	154.040000
472.827057	154.240000
472.920746	154.640000
473.014465	154.920000
473.108124	155.260000
473.201874	155.560000
473.295532	155.180000
473.389252	155.260000
473.482941	155.340000
473.576660	154.760000
473.670319	154.300000
473.764069	154.660000
473.857727	154.440000
473.951477	154.400000
474.045166	155.280000
474.138855	155.160000
474.232574	154.640000
474.326263	154.800000
474.419952	154.780000
474.513672	154.340000
474.607361	154.240000
474.701050	154.860000
474.794769	155.220000
474.888458	155.360000
474.982178	155.260000
475.075867	155.340000
475.169586	155.280000
475.263275	155.080000
475.356995	154.680000
475.450653	154.340000
475.544403	154.200000
475.638062	154.720000
475.731812	154.300000
475.825470	153.860000
475.919189	154.060000
476.012878	154.320000
476.106598	153.600000
476.200256	154.020000
476.294006	154.320000
476.387695	154.260000
476.481384	154.020000
476.575104	154.020000
476.668793	153.720000
476.762512	153.340000
476.856201	154.100000
476.949890	153.820000
477.043610	153.100000
477.137299	153.320000
477.230988	153.580000
477.324707	152.900000
477.418396	153.420000
477.512146	154.040000
477.605804	153.740000
477.699524	153.980000
477.793213	153.700000
477.886932	153.600000
477.980591	153.140000
478.074341	152.840000
478.167999	152.240000
478.261749	152.460000
478.355408	152.240000
478.449127	152.840000
478.542816	154.020000
478.636536	155.040000
478.730225	155.240000
478.823944	155.940000
478.917633	155.760000
479.011322	155.480000
479.105042	155.320000
479.198730	155.520000
479.292450	155.120000
479.386139	155.400000
479.479828	155.220000
479.573547	155.120000
479.667267	154.960000
479.760925	154.960000
479.854675	154.840000
479.948334	154.620000
480.042084	153.780000
480.135742	153.740000
480.229462	153.400000
480.323151	153.640000
480.416870	153.100000
480.510529	153.660000
480.604279	153.380000
480.697937	153.960000
480.791656	153.300000
480.885345	153.440000
480.979065	153.280000
481.072754	153.660000
481.166473	153.740000
481.260132	153.960000
481.353882	154.200000
481.447540	154.200000
481.541260	154.040000
481.635010	153.440000
481.728668	153.420000
481.822388	153.380000
481.916077	153.560000
482.009796	153.440000
482.103485	153.880000
482.197205	154.020000
482.290863	154.440000
482.384613	154.360000
482.478271	154.440000
482.571991	154.240000
482.665680	154.240000
482.759399	154.660000
482.853058	155.020000
482.946808	154.960000
483.040466	154.940000
483.134216	154.760000
483.227875	154.080000
483.321594	154.680000
483.415283	154.820000
483.509003	154.960000
483.602661	154.940000
483.696411	154.980000
483.790070	154.160000
483.883789	153.980000
483.977478	154.240000
484.071198	154.200000
484.164917	153.720000
484.258606	153.420000
484.352325	153.740000
484.445984	153.600000
484.539734	153.360000
484.633392	153.560000
484.727142	154.300000
484.820801	154.300000
484.914520	154.260000
485.008209	154.700000
485.101929	155.220000
485.195587	154.500000
485.289337	154.320000
485.382996	154.300000
485.476715	154.300000
485.570404	154.660000
485.664124	154.780000
485.757782	155.400000
485.851532	155.060000
485.945190	154.880000
486.038910	154.360000
486.132599	154.920000
486.226318	154.160000
486.319977	154.200000
486.413727	154.940000
486.507446	154.720000
486.601105	153.820000
486.694855	153.520000
486.788513	153.460000
486.882233	152.840000
486.975922	152.840000
487.069641	153.140000
487.163300	153.120000
487.257050	154.400000
487.350708	154.240000
487.444427	154.120000
487.538116	154.220000
487.631836	154.660000
487.725494	153.680000
487.819214	153.900000
487.912903	153.820000
488.006622	153.900000
488.100281	153.800000
488.194031	154.060000
488.287689	154.320000
488.381409	155.200000
488.475098	155.040000
488.568817	155.240000
488.662476	154.640000
488.756226	154.100000
488.849945	152.900000
488.943604	153.060000
489.037354	153.160000
489.131012	153.300000
489.224731	153.260000
489.318390	153.400000
489.412140	152.960000
489.505798	152.780000
489.599518	152.620000
489.693207	153.000000
489.786926	153.340000
489.880585	153.260000
489.974335	153.280000
490.067993	154.380000
490.161713	154.560000
490.255371	154.940000
490.349121	155.660000
490.442780	155.520000
490.536499	154.240000
490.630188	154.260000
490.723907	153.640000
490.817566	153.560000
490.911285	153.900000
491.004974	153.920000
491.098694	153.560000
491.192413	154.480000
491.286102	154.180000
491.379822	153.880000
491.473480	154.280000
491.567200	154.400000
491.660889	153.620000
491.754608	154.040000
491.848267	154.080000
491.941986	154.000000
492.035675	154.220000
492.129395	154.920000
492.223053	154.500000
492.316772	154.560000
492.410461	154.400000
492.504181	154.120000
492.597839	153.360000
492.691559	153.680000
492.785248	154.000000
492.878967	154.280000
492.972626	153.780000
493.066345	153.920000
493.160034	153.440000
493.253754	153.140000
493.347412	152.520000
493.441132	153.360000
493.534882	153.980000
493.628540	154.360000
493.722260	154.740000
493.815918	155.280000
493.909668	155.500000
494.003326	155.380000
494.097046	155.000000
494.190704	154.440000
494.284454	154.780000
494.378113	154.360000
494.471832	154.380000
494.565491	154.400000
494.659210	154.460000
494.752899	154.140000
494.846619	154.000000
494.940277	154.080000
495.033997	154.200000
495.127686	154.200000
495.221405	154.080000
495.315063	154.280000
495.408783	154.280000
495.502441	154.200000
495.596191	154.160000
495.689850	154.000000
495.783569	154.260000
495.877228	153.900000
495.970947	153.920000
496.064697	154.100000
496.158356	155.440000
496.252075	155.060000
496.345734	154.920000
496.439453	155.680000
496.533142	155.460000
496.626862	155.000000
496.720520	155.160000
496.814240	155.220000
496.907898	154.580000
497.001617	154.840000
497.095306	153.900000
497.189026	153.820000
497.282684	154.080000
497.376404	154.480000
497.470062	154.100000
497.563782	154.320000
497.657471	154.260000
497.751190	153.980000
497.844849	153.760000
497.938568	154.420000
498.032227	154.800000
498.125946	154.740000
498.219635	154.660000
498.313354	154.780000
498.407074	154.160000
498.500732	153.980000
498.594452	154.200000
498.688110	153.940000
498.781830	153.700000
498.875519	153.680000
498.969238	153.400000
499.062897	152.960000
499.156616	153.940000
499.250275	154.040000
499.343994	153.640000
499.437653	154.060000
499.531372	154.600000
499.625061	154.280000
499.718781	154.480000
499.812439	155.260000
499.906158	155.060000
499.999817	154.620000
500.093536	154.400000
500.187195	154.500000
500.280914	154.440000
500.374573	154.500000
500.468323	154.680000
500.561981	155.000000
500.655701	154.220000
500.749420	154.220000
500.843079	154.520000
500.936798	154.660000
501.030457	154.840000
501.124176	155.200000
501.217834	155.140000
501.311554	155.140000
501.405212	154.740000
501.498962	154.100000
501.592621	153.960000
501.686340	154.340000
501.779999	154.180000
501.873718	154.480000
501.967377	154.320000
502.061096	154.920000
502.154755	154.040000
502.248474	154.160000
502.342133	154.080000
502.435852	154.340000
502.529510	154.440000
502.623230	155.580000
502.716888	154.800000
502.810608	154.880000
502.904266	155.360000
502.997986	154.840000
503.091705	153.720000
503.185364	154.180000
503.279083	154.660000
503.372772	154.240000
503.466492	153.820000
503.560150	154.300000
503.653870	154.340000
503.747528	153.840000
503.841248	153.640000
503.934906	153.940000
504.028625	153.380000
504.122284	153.680000
504.216003	154.160000
504.309662	154.160000
504.403381	154.780000
504.497040	155.160000
504.590759	154.800000
504.684418	154.680000
504.778137	155.160000
504.871796	155.100000
504.965515	155.140000
505.059174	155.220000
505.152893	154.640000
505.246521	154.240000
505.340240	153.720000
505.433899	153.620000
505.527618	154.040000
505.621338	154.440000
505.714996	154.240000
505.808716	154.120000
505.902374	154.980000
505.996094	154.600000
506.089752	154.560000
506.183472	155.120000
506.277130	155.580000
506.370850	155.180000
506.464508	155.040000
506.558228	154.620000
506.651886	153.800000
506.745605	153.860000
506.839264	153.680000
506.932983	153.700000
507.026611	153.840000
507.120331	154.560000
507.213989	153.940000
507.307709	154.040000
507.401367	154.340000
507.495087	155.300000
507.588745	155.100000
507.682465	156.240000
507.776123	156.180000
507.869843	155.980000
507.963531	155.300000
508.057190	155.620000
508.150909	154.500000
508.244568	154.860000
508.338287	154.800000
508.431946	154.440000
508.525665	153.960000
508.619324	154.380000
508.713013	154.220000
508.806671	154.340000
508.900391	155.340000
508.994049	155.280000
509.087769	155.000000
509.181427	154.900000
509.275146	154.700000
509.368774	153.700000
509.462494	153.640000
509.556152	153.660000
509.649872	154.040000
509.743530	154.360000
509.837250	154.920000
509.930878	155.200000
510.024597	155.160000
510.118256	154.720000
510.211975	154.500000
510.305695	153.960000
510.399353	154.420000
510.493042	155.000000
510.586700	155.260000
510.680420	155.900000
510.774078	156.000000
510.867798	156.060000
510.961426	155.500000
511.055145	155.160000
511.148804	154.680000
511.242523	155.220000
511.336151	154.800000
511.429871	155.140000
511.523529	155.060000
511.617249	154.820000
511.710876	154.440000
511.804596	154.560000
511.898254	154.540000
511.991974	155.140000
512.085632	154.920000
512.179321	155.240000
512.272949	155.580000
512.366699	155.760000
512.460327	155.100000
512.554077	155.980000
512.647766	155.720000
512.741394	155.040000
512.835144	155.320000
512.928772	155.140000
513.022461	155.100000
513.116150	154.860000
513.209839	155.460000
513.303467	154.440000
513.397217	154.420000
513.490845	153.880000
513.584595	153.820000
513.678223	153.320000
513.771912	153.020000
513.865601	153.380000
513.959290	153.240000
514.052917	153.460000
514.146667	154.200000
514.240295	155.120000
514.333984	155.500000
514.427673	155.400000
514.521362	155.800000
514.614990	155.120000
514.708740	154.980000
514.802368	155.160000
514.896057	155.440000
514.989746	155.560000
515.083435	155.220000
515.177124	155.540000
515.270752	154.960000
515.364502	154.940000
515.458130	154.900000
515.551819	154.860000
515.645508	154.720000
515.739197	154.660000
515.832825	154.900000
515.926575	154.380000
516.020203	154.840000
516.113892	155.220000
516.207520	155.280000
516.301270	155.180000
516.394897	155.220000
516.488586	155.740000
516.582275	155.340000
516.675964	154.600000
516.769592	154.400000
516.863281	155.040000
516.956970	155.120000
517.050659	155.060000
517.144287	155.740000
517.238037	155.840000
517.331665	155.240000
517.425354	154.500000
517.519043	154.120000
517.612732	154.320000
517.706421	154.240000
517.800049	154.400000
517.893738	154.260000
517.987427	154.060000
518.081116	153.780000
518.174744	153.420000
518.268433	153.440000
518.362122	154.460000
518.455811	154.700000
518.549438	155.520000
518.643127	156.560000
518.736816	156.440000
518.830505	155.340000
518.924133	155.380000
519.017822	154.960000
519.111511	154.320000
519.205200	154.420000
519.298828	154.500000
519.392517	154.240000
519.486206	154.460000
519.579895	154.700000
519.673523	154.520000
519.767212	154.900000
519.860901	155.800000
519.954590	155.400000
520.048279	154.820000
520.141907	154.660000
520.235596	155.400000
520.329224	155.000000
520.422974	155.100000
520.516602	155.160000
520.610291	154.860000
520.703918	154.140000
520.797607	153.740000
520.891296	153.460000
520.984985	153.760000
521.078613	154.760000
521.172302	154.180000
521.265930	155.420000
521.359680	156.060000
521.453308	156.000000
521.546997	155.380000
521.640625	155.840000
521.734314	154.820000
521.827942	154.500000
521.921692	154.920000
522.015320	155.280000
522.109009	155.160000
522.202698	155.060000
522.296326	155.040000
522.390015	154.940000
522.483704	154.920000
522.577393	154.440000
522.671021	154.460000
522.764709	154.120000
522.858337	154.060000
522.952026	153.780000
523.045654	154.840000
523.139404	155.640000
523.233032	156.060000
523.326721	156.020000
523.420349	156.140000
523.514038	155.560000
523.607666	155.220000
523.701355	154.600000
523.795044	154.520000
523.888733	154.800000
523.982361	154.880000
524.076050	154.500000
524.169678	155.320000
524.263367	154.660000
524.356995	154.300000
524.450684	154.120000
524.544373	154.020000
524.638062	153.740000
524.731750	154.360000
524.825378	154.080000
524.919067	153.780000
525.012695	154.140000
525.106384	153.560000
525.200012	153.640000
525.293701	153.800000
525.387329	154.500000
525.481018	154.600000
525.574646	155.160000
525.668396	155.080000
525.762024	155.620000
525.855713	155.500000
525.949341	154.980000
526.043030	154.960000
526.136658	154.920000
526.230347	154.440000
526.323975	153.960000
526.417664	153.760000
526.511292	153.540000
526.604980	153.740000
526.698608	153.420000
526.792297	153.720000
526.885925	154.220000
526.979614	154.600000
527.073303	154.500000
527.166931	154.940000
527.260620	155.080000
527.354309	155.520000
527.447998	155.180000
527.541626	155.100000
527.635315	155.180000
527.728943	155.820000
527.822632	155.600000
527.916260	155.620000
528.009949	155.800000
528.103577	155.500000
528.197266	154.440000
528.290894	154.440000
528.384583	154.280000
528.478210	153.820000
528.571899	154.000000
528.665527	154.400000
528.759216	154.140000
528.852844	154.700000
528.946533	154.900000
529.040161	154.580000
529.133850	154.440000
529.227478	154.500000
529.321167	154.340000
529.414856	154.860000
529.508484	155.400000
529.602173	155.200000
529.695801	155.200000
529.789490	155.180000
529.883057	154.740000
529.976746	154.680000
530.070374	155.100000
530.164062	155.060000
530.257690	155.300000
530.351379	155.740000
530.445007	155.700000
530.538696	155.120000
530.632324	155.540000
530.726013	155.240000
530.819641	154.920000
530.913330	154.900000
531.006958	154.900000
531.100647	154.920000
531.194275	154.700000
531.287964	154.340000
531.381592	154.160000
531.475220	154.580000
531.568848	154.260000
531.662537	154.400000
531.756226	154.820000
531.849854	154.700000
531.943542	154.620000
532.037170	154.100000
532.130859	154.180000
532.224487	153.780000
532.318176	153.540000
532.411804	153.900000
532.505432	154.300000
532.599060	154.160000
532.692749	154.260000
532.786377	155.120000
532.880066	154.600000
532.973694	154.300000
533.067383	154.160000
533.161011	154.200000
533.254639	153.940000
533.348267	154.160000
533.441956	154.240000
533.535583	154.160000
533.629272	154.180000
533.722900	153.500000
533.816589	153.420000
533.910156	153.880000
534.003845	153.540000
534.097534	153.860000
534.191162	154.700000
534.284851	154.820000
534.378479	154.720000
534.472107	154.980000
534.565735	154.580000
534.659424	154.500000
534.753052	154.820000
534.846741	154.180000
534.940369	154.880000
535.033997	154.880000
535.127625	154.660000
535.221313	155.040000
535.314941	155.200000
535.408630	154.440000
535.502197	154.800000
535.595886	154.780000
535.689514	153.940000
535.783203	154.660000
535.876831	155.240000
535.970459	154.900000
536.064087	154.380000
536.157776	154.560000
536.251404	154.320000
536.345093	153.920000
536.438721	154.200000
536.532349	154.700000
536.626038	154.500000
536.719666	154.700000
536.813293	154.440000
536.906921	154.380000
537.000610	154.800000
537.094238	154.720000
537.187866	154.480000
537.281494	154.700000
537.375183	154.560000
537.468811	154.040000
537.562439	154.180000
537.656067	154.160000
537.749756	153.980000
537.843384	154.980000
537.937012	155.260000
538.030640	155.140000
538.124329	155.000000
538.217896	155.620000
538.311584	155.080000
538.405212	154.640000
538.498901	154.880000
538.592468	155.740000
538.686157	155.260000
538.779785	154.340000
538.873413	154.440000
538.967102	154.100000
539.060730	152.900000
539.154358	153.420000
539.247986	154.120000
539.341675	154.420000
539.435242	154.460000
539.528931	155.180000
539.622559	154.920000
539.716187	155.340000
539.809814	155.420000
539.903503	155.620000
539.997070	155.220000
540.090759	154.980000
540.184387	154.500000
540.278015	154.660000
540.371643	154.940000
540.465332	155.160000
540.558899	155.040000
540.652588	155.240000
540.746216	155.040000
540.839844	155.040000
540.933472	155.060000
541.027100	155.420000
541.120728	155.260000
541.214417	155.340000
541.308044	155.340000
541.401672	154.940000
541.495300	154.640000
541.588928	154.640000
541.682617	154.220000
541.776184	153.920000
541.869873	154.300000
541.963440	154.400000
542.057129	154.240000
542.150757	154.640000
542.244385	154.460000
542.338013	154.200000
542.431641	154.100000
542.525269	153.980000
542.618958	154.440000
542.712524	154.920000
542.806213	154.640000
542.899780	154.700000
542.993469	154.480000
543.087036	154.180000
543.180725	153.540000
543.274292	154.180000
543.367981	154.460000
543.461548	154.920000
543.555237	154.480000
543.648926	154.920000
543.742493	155.460000
543.836182	155.500000
543.929749	155.220000
544.023437	155.200000
544.117004	155.140000
544.210693	154.680000
544.304260	154.460000
544.397949	153.980000
544.491516	154.300000
544.585205	154.200000
544.678772	153.700000
544.772461	154.200000
544.866028	154.620000
544.959717	154.560000
545.053284	154.260000
545.146973	154.700000
545.240540	154.180000
545.334229	154.780000
545.427795	154.960000
545.521423	155.180000
545.615051	155.100000
545.708679	155.900000
545.802307	155.640000
545.895935	155.700000
545.989624	156.780000
546.083191	156.480000
546.176880	156.040000
546.270447	155.420000
546.364136	155.600000
546.457703	154.760000
546.551331	154.980000
546.644958	154.880000
546.738586	155.560000
546.832214	154.880000
546.925842	154.700000
547.019409	154.820000
547.113098	154.240000
547.206665	153.860000
547.300354	153.820000
547.393921	154.180000
547.487549	154.360000
547.581177	154.380000
547.674805	154.540000
547.768433	154.460000
547.862061	154.420000
547.955627	153.840000
548.049316	154.880000
548.142883	155.060000
548.236572	155.640000
548.330139	155.660000
548.423767	155.740000
548.517456	155.300000
548.611023	155.540000
548.704651	154.740000
548.798279	154.820000
548.891907	155.300000
548.985474	155.200000
549.079163	155.360000
549.172729	155.320000
549.266357	154.760000
549.359985	154.880000
549.453613	154.280000
549.547180	153.480000
549.640869	154.380000
549.734436	154.220000
549.828064	154.260000
549.921631	154.680000
550.015320	154.780000
550.108887	154.760000
550.202515	155.120000
550.296143	154.380000
550.389771	154.620000
550.483337	154.720000
550.576965	154.140000
550.670593	154.440000
550.764221	155.000000
550.857849	154.460000
550.951477	154.060000
551.045105	153.980000
551.138672	154.100000
551.232300	153.540000
551.325928	154.220000
551.419556	154.600000
551.513123	154.520000
551.606750	153.920000
551.700378	154.280000
551.794006	153.900000
551.887573	154.040000
551.981201	154.820000
552.074768	154.980000
552.168457	154.400000
552.262024	155.440000
552.355652	155.300000
552.449219	155.620000
552.542847	155.540000
552.636475	155.520000
552.730103	154.300000
552.823669	154.200000
552.917297	153.280000
553.010864	153.440000
553.104553	154.140000
553.198181	154.160000
553.291748	154.960000
553.385376	155.580000
553.478943	155.260000
553.572571	154.860000
553.666199	155.040000
553.759827	154.020000
553.853394	153.280000
553.947021	153.860000
554.040588	153.940000
554.134216	154.320000
554.227783	155.480000
554.321411	156.600000
554.415039	156.020000
554.508667	155.980000
554.602234	156.060000
554.695862	155.020000
554.789429	154.460000
554.883057	154.680000
554.976624	154.640000
555.070251	154.420000
555.163818	154.480000
555.257507	154.680000
555.351074	154.720000
555.444702	156.060000
555.538330	155.480000
555.631897	155.700000
555.725525	155.180000
555.819092	154.940000
555.912720	153.260000
556.006287	153.860000
556.099915	153.740000
556.193481	153.980000
556.287109	154.240000
556.380676	154.760000
556.474304	155.020000
556.567871	155.340000
556.661499	154.680000
556.755066	154.720000
556.848694	154.440000
556.942261	154.160000
557.035889	154.200000
557.129517	155.000000
557.223145	155.420000
557.316711	155.720000
557.410339	155.600000
557.503906	155.420000
557.597473	155.420000
557.691040	155.040000
557.784668	155.140000
557.878296	155.080000
557.971863	154.940000
558.065491	154.780000
558.159058	154.420000
558.252686	155.240000
558.346252	156.080000
558.439880	155.820000
558.533447	155.380000
558.627075	155.540000
558.720642	154.320000
558.814270	153.720000
558.907837	153.840000
559.001465	153.680000
559.095032	154.360000
559.188660	155.060000
559.282227	154.460000
559.375854	155.160000
559.469360	155.360000
559.562988	155.120000
559.656555	154.880000
559.750183	155.560000
559.843750	155.300000
559.937378	155.240000
560.030945	154.780000
560.124573	0.000000
560.218140	0.000000
560.311707	0.000000
560.405334	0.000000
560.498901	0.000000
560.592529	0.000000
560.686096	0.000000
560.779724	0.000000
560.873291	0.000000
560.966858	0.000000
561.060425	0.000000
561.154053	0.000000
561.247620	0.000000
561.341248	0.000000
561.434814	0.000000
561.528381	0.000000
561.621948	0.000000
561.715576	0.000000
561.809143	0.000000
561.902771	0.000000
561.996277	0.000000
562.089905	0.000000
562.183472	0.000000
562.277100	0.000000
