Model Number: SPM-002-B   
Serial Number: 70087108
Firmware Version: 004.15.4
Exposure Time: 100000.000000us
Data Taken on: 15-01-2021 17:49:59.058
Wavelength	Amplitude
221.570786	0.000000
221.663406	0.000000
221.756027	0.000000
221.848648	0.000000
221.941269	0.000000
222.033905	0.000000
222.126526	0.000000
222.219162	0.000000
222.311798	0.000000
222.404419	0.000000
222.497055	0.000000
222.589676	0.000000
222.682312	0.000000
222.774933	0.000000
222.867569	0.000000
222.960205	0.000000
223.052841	0.000000
223.145462	0.000000
223.238098	0.000000
223.330734	0.000000
223.423386	0.000000
223.516022	0.000000
223.608658	0.000000
223.701309	0.000000
223.793945	0.000000
223.886581	0.000000
223.979218	0.000000
224.071869	0.000000
224.164505	0.000000
224.257156	0.000000
224.349792	0.000000
224.442444	0.000000
224.535095	0.000000
224.627747	0.000000
224.720398	0.000000
224.813034	0.000000
224.905685	0.000000
224.998337	154.300000
225.090988	153.820000
225.183640	153.780000
225.276291	153.620000
225.368942	153.840000
225.461594	154.800000
225.554245	155.320000
225.646912	155.600000
225.739578	156.120000
225.832230	156.600000
225.924896	155.740000
226.017548	156.140000
226.110199	156.560000
226.202866	155.960000
226.295532	155.640000
226.388184	155.640000
226.480850	154.920000
226.573517	154.360000
226.666168	154.500000
226.758835	154.860000
226.851501	155.340000
226.944183	155.480000
227.036850	155.140000
227.129517	155.240000
227.222183	155.020000
227.314850	154.760000
227.407516	154.920000
227.500198	155.940000
227.592865	155.480000
227.685532	155.180000
227.778214	155.020000
227.870880	155.200000
227.963562	155.400000
228.056229	156.340000
228.148926	156.420000
228.241592	157.280000
228.334274	156.840000
228.426956	156.420000
228.519638	155.900000
228.612305	155.360000
228.704987	155.020000
228.797668	155.320000
228.890350	154.940000
228.983032	154.420000
229.075714	155.220000
229.168396	154.920000
229.261108	154.480000
229.353790	154.720000
229.446472	155.100000
229.539169	155.020000
229.631851	154.660000
229.724533	154.820000
229.817230	154.760000
229.909912	155.940000
230.002609	155.840000
230.095306	155.920000
230.187988	156.260000
230.280685	155.900000
230.373383	154.520000
230.466095	154.260000
230.558792	154.680000
230.651474	154.120000
230.744171	154.240000
230.836868	154.200000
230.929581	154.620000
231.022278	154.460000
231.114975	154.980000
231.207672	154.900000
231.300369	155.400000
231.393082	155.380000
231.485779	155.020000
231.578506	154.900000
231.671204	155.120000
231.763916	155.000000
231.856613	154.800000
231.949326	154.960000
232.042023	154.740000
232.134735	154.680000
232.227448	154.040000
232.320160	154.240000
232.412872	154.580000
232.505585	155.520000
232.598297	156.020000
232.691010	156.400000
232.783722	156.120000
232.876450	156.520000
232.969162	155.460000
233.061874	154.500000
233.154587	154.460000
233.247314	154.760000
233.340027	154.040000
233.432739	154.920000
233.525467	155.100000
233.618179	155.620000
233.710907	155.340000
233.803635	155.760000
233.896347	155.260000
233.989090	156.080000
234.081818	155.740000
234.174545	156.000000
234.267258	155.600000
234.359985	155.660000
234.452713	155.040000
234.545441	154.840000
234.638168	154.760000
234.730896	155.200000
234.823639	155.080000
234.916367	155.620000
235.009094	155.680000
235.101822	155.480000
235.194580	155.140000
235.287308	155.320000
235.380051	154.920000
235.472778	154.920000
235.565521	155.260000
235.658249	155.000000
235.750992	155.000000
235.843719	154.860000
235.936462	155.080000
236.029205	154.580000
236.121948	154.320000
236.214691	154.780000
236.307449	155.360000
236.400192	154.960000
236.492935	154.860000
236.585678	155.360000
236.678421	154.960000
236.771164	154.680000
236.863907	155.420000
236.956665	155.840000
237.049408	157.720000
237.142151	157.180000
237.234909	157.980000
237.327652	158.080000
237.420410	157.960000
237.513153	156.660000
237.605927	156.660000
237.698669	155.640000
237.791428	154.960000
237.884186	155.240000
237.976944	154.620000
238.069702	155.220000
238.162445	155.120000
238.255203	155.100000
238.347961	155.240000
238.440720	155.260000
238.533478	154.940000
238.626266	154.760000
238.719025	155.320000
238.811783	154.920000
238.904541	154.980000
238.997314	155.000000
239.090073	155.000000
239.182831	154.940000
239.275604	155.700000
239.368362	155.440000
239.461136	155.460000
239.553909	155.300000
239.646667	154.700000
239.739441	154.220000
239.832214	154.580000
239.925003	154.880000
240.017761	155.700000
240.110535	156.360000
240.203308	155.540000
240.296082	155.660000
240.388855	155.300000
240.481628	155.360000
240.574417	155.300000
240.667191	155.800000
240.759964	155.520000
240.852737	155.760000
240.945526	155.220000
241.038315	154.760000
241.131088	154.960000
241.223877	155.080000
241.316650	154.420000
241.409439	154.780000
241.502228	154.680000
241.595001	155.080000
241.687790	154.680000
241.780579	154.960000
241.873367	154.800000
241.966141	155.240000
242.058929	154.400000
242.151718	155.020000
242.244507	155.660000
242.337311	155.060000
242.430099	155.560000
242.522903	156.040000
242.615692	155.380000
242.708481	155.340000
242.801270	156.100000
242.894073	155.700000
242.986862	155.780000
243.079651	156.640000
243.172455	156.280000
243.265244	156.340000
243.358063	155.740000
243.450867	156.120000
243.543655	155.780000
243.636459	155.860000
243.729263	156.120000
243.822067	156.680000
243.914856	156.520000
244.007660	156.620000
244.100464	156.860000
244.193268	155.880000
244.286072	155.620000
244.378876	155.140000
244.471680	154.780000
244.564499	154.780000
244.657318	155.880000
244.750122	156.200000
244.842926	155.900000
244.935745	156.640000
245.028549	156.100000
245.121368	155.520000
245.214172	155.500000
245.306992	155.960000
245.399796	155.220000
245.492615	155.540000
245.585434	155.340000
245.678253	155.320000
245.771072	155.200000
245.863892	155.920000
245.956711	156.040000
246.049530	156.020000
246.142349	155.380000
246.235168	155.580000
246.327988	155.820000
246.420807	155.320000
246.513626	155.380000
246.606445	155.420000
246.699280	155.060000
246.792099	154.140000
246.884918	153.940000
246.977753	153.480000
247.070587	153.760000
247.163422	153.660000
247.256241	153.940000
247.349075	154.660000
247.441895	155.040000
247.534729	155.240000
247.627563	155.380000
247.720383	155.980000
247.813217	155.320000
247.906052	155.280000
247.998886	155.100000
248.091736	154.940000
248.184570	154.460000
248.277405	154.860000
248.370239	155.880000
248.463074	156.940000
248.555908	157.400000
248.648743	157.220000
248.741592	157.500000
248.834427	156.580000
248.927261	155.080000
249.020111	155.380000
249.112946	156.000000
249.205795	155.280000
249.298630	155.560000
249.391495	155.900000
249.484344	155.260000
249.577179	154.940000
249.670029	155.460000
249.762878	155.840000
249.855728	156.080000
249.948563	156.380000
250.041412	155.640000
250.134262	155.700000
250.227112	155.740000
250.319962	155.460000
250.412827	155.400000
250.505692	155.080000
250.598541	155.000000
250.691391	154.240000
250.784241	154.200000
250.877106	154.360000
250.969955	154.740000
251.062805	155.060000
251.155670	155.780000
251.248520	155.880000
251.341385	155.960000
251.434235	155.780000
251.527100	155.180000
251.619965	154.560000
251.712814	155.040000
251.805695	154.820000
251.898560	155.260000
251.991425	155.840000
252.084290	155.980000
252.177155	155.120000
252.270020	154.940000
252.362885	154.820000
252.455750	154.620000
252.548615	154.700000
252.641479	155.220000
252.734360	155.140000
252.827240	155.260000
252.920105	155.640000
253.012970	155.340000
253.105850	155.000000
253.198715	154.780000
253.291595	155.000000
253.384460	154.180000
253.477341	154.200000
253.570221	154.660000
253.663086	154.640000
253.755966	155.100000
253.848846	155.360000
253.941727	155.540000
254.034592	155.320000
254.127472	155.020000
254.220367	154.800000
254.313248	154.860000
254.406128	154.380000
254.499008	154.700000
254.591904	155.660000
254.684784	156.020000
254.777664	156.000000
254.870544	155.980000
254.963440	155.840000
255.056335	155.660000
255.149216	154.820000
255.242111	155.440000
255.334991	155.980000
255.427887	156.000000
255.520767	156.100000
255.613663	156.520000
255.706558	155.600000
255.799438	155.220000
255.892334	155.000000
255.985229	154.900000
256.078125	154.600000
256.171021	154.920000
256.263916	155.580000
256.356812	155.700000
256.449707	155.700000
256.542603	155.380000
256.635498	155.660000
256.728394	155.100000
256.821289	154.860000
256.914215	155.000000
257.007080	155.460000
257.100006	155.560000
257.192932	156.160000
257.285828	156.600000
257.378723	156.240000
257.471619	155.940000
257.564545	155.320000
257.657440	155.240000
257.750336	155.820000
257.843262	155.780000
257.936157	157.180000
258.029053	157.720000
258.121979	157.720000
258.214874	156.980000
258.307800	156.740000
258.400696	155.220000
258.493622	154.820000
258.586517	153.720000
258.679443	153.920000
258.772339	153.840000
258.865265	153.980000
258.958160	153.860000
259.051086	155.360000
259.144012	155.100000
259.236938	156.100000
259.329834	156.340000
259.422791	156.020000
259.515717	155.140000
259.608612	155.040000
259.701538	154.700000
259.794464	154.520000
259.887390	155.100000
259.980316	155.040000
260.073212	155.000000
260.166138	154.180000
260.259064	154.580000
260.351990	155.060000
260.444916	155.420000
260.537842	155.720000
260.630768	156.520000
260.723694	156.240000
260.816620	155.600000
260.909546	155.520000
261.002472	155.240000
261.095398	154.560000
261.188354	154.660000
261.281281	154.460000
261.374207	154.320000
261.467133	154.980000
261.560089	155.460000
261.653015	154.960000
261.745972	155.720000
261.838867	156.200000
261.931824	156.300000
262.024780	155.920000
262.117706	156.280000
262.210663	156.160000
262.303589	155.780000
262.396515	155.520000
262.489471	156.320000
262.582397	156.400000
262.675354	155.600000
262.768280	155.620000
262.861237	155.440000
262.954163	155.260000
263.047119	155.140000
263.140045	155.240000
263.233002	155.420000
263.325958	155.260000
263.418884	154.600000
263.511841	154.500000
263.604797	154.880000
263.697723	154.600000
263.790680	154.660000
263.883636	155.140000
263.976593	155.140000
264.069550	155.220000
264.162476	154.940000
264.255463	154.740000
264.348419	154.600000
264.441376	155.040000
264.534332	154.440000
264.627289	154.840000
264.720245	155.560000
264.813202	155.100000
264.906158	155.140000
264.999115	155.840000
265.092072	155.580000
265.185028	155.740000
265.277985	156.300000
265.370941	155.900000
265.463898	155.420000
265.556854	155.320000
265.649811	154.380000
265.742798	154.480000
265.835754	154.540000
265.928711	155.260000
266.021667	155.320000
266.114655	155.660000
266.207611	155.760000
266.300568	155.260000
266.393585	154.640000
266.486511	155.100000
266.579498	154.540000
266.672485	154.320000
266.765442	154.180000
266.858429	154.700000
266.951385	154.140000
267.044342	154.160000
267.137329	154.280000
267.230316	155.100000
267.323273	154.540000
267.416260	155.080000
267.509216	155.340000
267.602203	155.400000
267.695160	155.680000
267.788147	155.760000
267.881134	155.180000
267.974091	155.580000
268.067078	154.960000
268.160065	154.460000
268.253052	154.440000
268.346008	154.720000
268.438995	154.300000
268.531982	154.620000
268.624969	154.400000
268.717987	154.700000
268.810944	154.500000
268.903961	154.800000
268.996948	154.540000
269.089905	155.480000
269.182892	155.480000
269.275879	156.040000
269.368866	155.360000
269.461853	155.880000
269.554871	155.300000
269.647858	155.360000
269.740845	155.700000
269.833832	156.300000
269.926819	155.620000
270.019806	155.960000
270.112793	155.320000
270.205811	155.060000
270.298798	154.800000
270.391785	155.500000
270.484772	154.800000
270.577789	155.120000
270.670776	154.340000
270.763763	154.380000
270.856750	154.260000
270.949768	154.380000
271.042786	154.440000
271.135773	154.780000
271.228790	155.240000
271.321808	154.860000
271.414795	154.580000
271.507782	154.180000
271.600800	154.100000
271.693817	154.100000
271.786804	154.760000
271.879822	155.260000
271.972809	155.520000
272.065826	155.980000
272.158844	155.480000
272.251831	155.760000
272.344849	155.560000
272.437866	155.340000
272.530853	155.280000
272.623871	155.380000
272.716888	154.140000
272.809906	154.620000
272.902893	154.940000
272.995911	154.220000
273.088928	154.500000
273.181946	154.740000
273.274963	154.260000
273.367981	154.200000
273.460999	154.580000
273.554047	154.840000
273.647003	155.960000
273.740051	155.980000
273.833069	156.300000
273.926086	156.500000
274.019135	156.100000
274.112152	155.560000
274.205170	155.540000
274.298187	155.720000
274.391205	155.280000
274.484222	155.260000
274.577240	154.840000
274.670258	155.080000
274.763306	154.700000
274.856323	155.300000
274.949341	155.400000
275.042358	156.060000
275.135406	155.700000
275.228424	155.620000
275.321442	155.520000
275.414490	155.180000
275.507507	155.320000
275.600525	155.800000
275.693573	155.800000
275.786591	155.380000
275.879669	155.660000
275.972656	155.020000
276.065735	154.660000
276.158752	155.200000
276.251801	155.920000
276.344818	156.100000
276.437866	156.460000
276.530884	156.240000
276.623932	155.600000
276.716980	155.540000
276.809998	155.400000
276.903046	155.340000
276.996094	156.440000
277.089111	157.160000
277.182159	157.760000
277.275208	157.540000
277.368256	157.500000
277.461304	156.880000
277.554321	155.880000
277.647369	155.220000
277.740417	155.480000
277.833466	155.240000
277.926514	155.360000
278.019562	156.320000
278.112610	155.740000
278.205688	155.680000
278.298706	155.800000
278.391785	155.300000
278.484833	154.760000
278.577881	154.940000
278.670929	155.300000
278.763977	155.320000
278.857025	155.900000
278.950073	155.880000
279.043121	155.860000
279.136169	155.740000
279.229248	155.280000
279.322296	155.200000
279.415344	155.240000
279.508392	155.220000
279.601440	154.980000
279.694519	155.200000
279.787567	155.060000
279.880615	154.840000
279.973694	154.660000
280.066742	154.540000
280.159790	154.860000
280.252869	154.360000
280.345917	154.660000
280.438995	154.660000
280.532074	154.660000
280.625122	154.900000
280.718201	156.060000
280.811279	155.960000
280.904327	155.940000
280.997406	156.120000
281.090454	156.160000
281.183533	155.060000
281.276581	154.800000
281.369659	154.540000
281.462738	154.520000
281.555786	154.460000
281.648865	154.700000
281.741943	154.680000
281.835022	155.420000
281.928070	155.200000
282.021149	154.980000
282.114227	155.060000
282.207306	155.160000
282.300385	155.320000
282.393433	155.580000
282.486511	155.600000
282.579590	156.080000
282.672668	156.420000
282.765747	156.020000
282.858856	155.800000
282.951904	155.940000
283.045013	156.040000
283.138062	156.320000
283.231171	156.720000
283.324249	157.120000
283.417328	157.040000
283.510406	156.120000
283.603485	155.740000
283.696564	155.460000
283.789642	155.380000
283.882751	154.920000
283.975830	155.900000
284.068909	155.760000
284.161987	156.200000
284.255066	155.700000
284.348175	156.020000
284.441254	155.540000
284.534332	156.100000
284.627441	155.780000
284.720520	155.480000
284.813599	155.500000
284.906708	155.620000
284.999786	154.740000
285.092896	154.440000
285.185974	155.780000
285.279053	155.360000
285.372192	155.280000
285.465240	156.240000
285.558380	156.180000
285.651459	155.400000
285.744568	156.500000
285.837677	156.220000
285.930756	156.120000
286.023865	156.280000
286.116943	156.120000
286.210052	155.700000
286.303162	155.820000
286.396240	155.360000
286.489349	155.240000
286.582458	155.700000
286.675568	155.320000
286.768646	155.200000
286.861755	155.700000
286.954865	156.440000
287.047974	155.780000
287.141083	155.860000
287.234161	156.060000
287.327271	155.420000
287.420380	155.480000
287.513519	155.100000
287.606598	155.260000
287.699738	155.280000
287.792816	155.440000
287.885956	154.960000
287.979034	155.460000
288.072174	155.400000
288.165283	155.220000
288.258392	155.260000
288.351501	154.760000
288.444611	154.920000
288.537720	155.120000
288.630859	155.220000
288.723969	155.580000
288.817078	155.980000
288.910187	156.060000
289.003296	155.540000
289.096436	155.020000
289.189545	154.640000
289.282654	154.140000
289.375763	154.260000
289.468903	154.680000
289.562012	155.300000
289.655121	155.260000
289.748260	155.860000
289.841400	156.200000
289.934509	155.940000
290.027649	156.140000
290.120728	155.900000
290.213898	155.800000
290.306976	155.400000
290.400146	155.700000
290.493256	154.820000
290.586395	155.360000
290.679535	155.620000
290.772644	155.540000
290.865784	154.640000
290.958893	155.160000
291.052032	154.860000
291.145172	154.640000
291.238281	154.280000
291.331421	154.720000
291.424561	155.220000
291.517670	154.880000
291.610809	155.140000
291.703949	155.240000
291.797089	155.520000
291.890228	154.760000
291.983337	154.840000
292.076477	154.480000
292.169617	154.780000
292.262756	154.880000
292.355927	154.860000
292.449036	154.960000
292.542206	155.060000
292.635315	155.480000
292.728485	155.720000
292.821625	155.540000
292.914764	156.740000
293.007904	156.560000
293.101044	156.200000
293.194183	155.940000
293.287323	156.240000
293.380463	155.600000
293.473602	155.280000
293.566742	155.400000
293.659882	155.700000
293.753021	155.920000
293.846191	155.520000
293.939331	155.520000
294.032471	155.220000
294.125610	154.480000
294.218781	154.760000
294.311920	155.120000
294.405060	155.400000
294.498230	155.600000
294.591370	155.920000
294.684540	155.160000
294.777679	154.440000
294.870850	154.780000
294.963959	154.600000
295.057159	154.580000
295.150299	155.300000
295.243469	155.380000
295.336609	154.820000
295.429779	154.500000
295.522919	154.800000
295.616089	154.460000
295.709229	155.320000
295.802399	155.400000
295.895569	155.480000
295.988708	155.440000
296.081879	155.700000
296.175018	155.100000
296.268188	155.160000
296.361359	155.760000
296.454529	155.560000
296.547668	155.120000
296.640839	155.540000
296.734009	155.240000
296.827179	155.240000
296.920319	155.860000
297.013519	155.940000
297.106659	155.700000
297.199860	155.960000
297.292999	156.040000
297.386200	155.060000
297.479309	154.800000
297.572510	154.800000
297.665680	154.580000
297.758850	154.120000
297.852020	154.480000
297.945190	154.640000
298.038361	154.400000
298.131531	155.360000
298.224701	155.540000
298.317871	155.120000
298.411072	154.920000
298.504242	154.860000
298.597412	154.360000
298.690582	154.500000
298.783752	154.660000
298.876923	155.480000
298.970093	155.900000
299.063293	156.260000
299.156464	156.480000
299.249634	156.860000
299.342834	156.620000
299.436005	156.860000
299.529205	156.500000
299.622345	156.200000
299.715576	155.400000
299.808716	155.000000
299.901917	154.480000
299.995117	154.420000
300.088287	154.620000
300.181488	154.640000
300.274658	154.620000
300.367828	154.840000
300.461029	155.080000
300.554199	155.180000
300.647400	155.720000
300.740601	156.160000
300.833771	155.760000
300.926971	155.900000
301.020142	155.240000
301.113342	155.020000
301.206512	155.200000
301.299713	155.720000
301.392914	155.320000
301.486084	155.840000
301.579285	155.920000
301.672516	156.220000
301.765686	156.020000
301.858887	156.040000
301.952057	155.880000
302.045288	156.080000
302.138458	155.440000
302.231659	155.460000
302.324860	155.480000
302.418060	155.060000
302.511261	154.840000
302.604462	154.980000
302.697662	154.760000
302.790863	154.480000
302.884064	154.260000
302.977264	154.400000
303.070465	154.640000
303.163666	155.320000
303.256866	155.740000
303.350067	156.200000
303.443268	156.160000
303.536469	156.300000
303.629669	155.640000
303.722870	155.880000
303.816071	155.460000
303.909271	155.280000
304.002472	154.200000
304.095673	154.060000
304.188934	153.380000
304.282104	154.660000
304.375336	154.900000
304.468506	155.380000
304.561768	155.260000
304.654968	155.900000
304.748169	155.240000
304.841370	154.960000
304.934601	155.100000
305.027802	154.820000
305.121002	154.360000
305.214233	154.220000
305.307434	154.500000
305.400665	155.040000
305.493866	155.200000
305.587097	155.600000
305.680298	155.580000
305.773499	156.060000
305.866730	155.740000
305.959930	156.380000
306.053162	156.440000
306.146393	156.180000
306.239594	155.220000
306.332825	154.820000
306.426025	154.820000
306.519287	154.560000
306.612488	154.820000
306.705719	155.020000
306.798920	155.340000
306.892181	154.920000
306.985352	154.300000
307.078613	153.880000
307.171844	154.420000
307.265045	153.900000
307.358276	153.700000
307.451508	154.260000
307.544739	155.040000
307.637970	154.400000
307.731201	154.400000
307.824402	155.040000
307.917633	155.260000
308.010864	155.260000
308.104095	156.040000
308.197327	156.340000
308.290558	156.340000
308.383789	155.860000
308.477020	155.480000
308.570251	154.540000
308.663483	154.260000
308.756714	153.820000
308.849976	154.220000
308.943176	154.600000
309.036438	154.820000
309.129639	154.780000
309.222900	155.000000
309.316101	154.760000
309.409393	153.980000
309.502625	153.780000
309.595856	153.980000
309.689087	153.980000
309.782318	153.820000
309.875580	154.240000
309.968811	154.500000
310.062042	154.280000
310.155273	154.120000
310.248535	154.760000
310.341766	154.880000
310.434998	154.740000
310.528259	154.540000
310.621490	154.980000
310.714722	154.120000
310.807983	154.040000
310.901215	154.140000
310.994476	154.360000
311.087708	153.860000
311.181000	154.280000
311.274200	153.840000
311.367462	154.020000
311.460693	154.040000
311.553986	154.740000
311.647186	155.280000
311.740479	156.040000
311.833710	155.680000
311.926971	155.840000
312.020203	155.040000
312.113464	154.540000
312.206726	153.720000
312.299957	154.180000
312.393219	154.640000
312.486481	155.040000
312.579712	155.140000
312.672974	155.360000
312.766235	155.220000
312.859497	155.020000
312.952759	154.820000
313.045990	155.480000
313.139252	155.120000
313.232513	155.200000
313.325775	155.100000
313.419037	154.860000
313.512299	153.880000
313.605530	154.860000
313.698822	155.060000
313.792053	155.040000
313.885345	154.980000
313.978577	155.300000
314.071869	154.600000
314.165131	154.380000
314.258392	154.660000
314.351654	154.980000
314.444916	154.360000
314.538177	154.880000
314.631439	155.240000
314.724701	154.960000
314.817993	154.800000
314.911255	155.340000
315.004517	154.720000
315.097778	154.420000
315.191040	154.580000
315.284302	154.900000
315.377594	154.620000
315.470856	154.900000
315.564117	154.400000
315.657379	154.200000
315.750671	153.620000
315.843933	154.240000
315.937195	153.980000
316.030518	153.940000
316.123749	153.780000
316.217041	154.800000
316.310303	154.500000
316.403595	154.560000
316.496857	155.060000
316.590149	155.460000
316.683411	154.580000
316.776703	154.140000
316.869965	154.520000
316.963257	154.060000
317.056519	153.340000
317.149811	153.340000
317.243073	153.640000
317.336365	153.640000
317.429626	154.300000
317.522919	155.040000
317.616180	155.320000
317.709473	155.060000
317.802765	154.700000
317.896027	154.400000
317.989319	154.400000
318.082611	154.140000
318.175873	154.040000
318.269165	154.280000
318.362488	154.440000
318.455750	153.940000
318.549042	154.520000
318.642303	155.340000
318.735626	154.900000
318.828888	154.900000
318.922211	154.860000
319.015472	155.200000
319.108765	154.140000
319.202057	153.980000
319.295349	154.240000
319.388641	154.100000
319.481934	153.860000
319.575226	154.220000
319.668518	154.700000
319.761810	154.680000
319.855103	155.020000
319.948395	154.840000
320.041687	155.040000
320.134979	155.020000
320.228271	154.520000
320.321564	154.440000
320.414856	154.360000
320.508148	153.980000
320.601440	153.940000
320.694763	154.020000
320.788025	154.700000
320.881348	154.620000
320.974640	154.940000
321.067963	154.300000
321.161224	154.520000
321.254547	153.680000
321.347839	153.900000
321.441162	153.460000
321.534454	154.160000
321.627747	153.920000
321.721069	154.720000
321.814362	154.900000
321.907654	155.420000
322.000946	155.220000
322.094269	155.880000
322.187561	155.020000
322.280884	155.180000
322.374176	155.200000
322.467468	155.600000
322.560791	155.240000
322.654083	155.840000
322.747406	155.600000
322.840698	155.700000
322.934021	156.080000
323.027344	156.440000
323.120636	156.180000
323.213959	155.880000
323.307251	155.200000
323.400574	154.740000
323.493866	154.000000
323.587219	154.180000
323.680511	154.680000
323.773834	155.300000
323.867157	155.120000
323.960449	155.400000
324.053772	154.960000
324.147095	154.600000
324.240387	154.840000
324.333710	154.960000
324.427032	154.820000
324.520355	155.160000
324.613647	154.740000
324.706970	154.340000
324.800293	154.400000
324.893616	154.820000
324.986938	154.940000
325.080231	155.040000
325.173553	155.500000
325.266876	155.880000
325.360199	155.740000
325.453522	155.360000
325.546875	155.180000
325.640167	155.020000
325.733521	155.040000
325.826813	155.120000
325.920166	155.000000
326.013489	155.240000
326.106812	154.380000
326.200134	153.780000
326.293457	153.260000
326.386780	153.500000
326.480103	153.420000
326.573425	153.560000
326.666748	153.700000
326.760071	154.100000
326.853424	154.160000
326.946747	154.360000
327.040070	155.420000
327.133392	155.280000
327.226715	154.700000
327.320068	154.240000
327.413391	154.660000
327.506714	153.700000
327.600037	153.880000
327.693390	154.320000
327.786713	154.500000
327.880066	154.200000
327.973358	154.840000
328.066742	155.300000
328.160034	155.400000
328.253418	156.040000
328.346710	155.820000
328.440063	155.380000
328.533417	154.760000
328.626740	154.880000
328.720093	154.020000
328.813416	153.900000
328.906769	153.960000
329.000092	154.220000
329.093445	154.160000
329.186768	154.420000
329.280121	155.420000
329.373444	155.920000
329.466797	155.940000
329.560120	155.880000
329.653473	156.020000
329.746796	154.940000
329.840149	154.520000
329.933502	154.300000
330.026825	154.060000
330.120178	153.840000
330.213562	154.320000
330.306854	154.260000
330.400238	154.380000
330.493561	154.280000
330.586945	155.160000
330.680237	154.980000
330.773621	155.140000
330.866974	154.920000
330.960327	155.540000
331.053680	154.660000
331.147003	155.060000
331.240356	155.380000
331.333710	155.740000
331.427063	155.120000
331.520416	155.640000
331.613770	155.180000
331.707123	155.080000
331.800476	154.880000
331.893829	155.920000
331.987152	155.840000
332.080505	155.840000
332.173859	155.320000
332.267212	154.980000
332.360565	154.200000
332.453918	154.040000
332.547333	154.040000
332.640656	154.440000
332.734039	155.020000
332.827362	154.760000
332.920746	155.180000
333.014069	155.860000
333.107452	156.300000
333.200806	156.220000
333.294159	156.660000
333.387543	156.080000
333.480896	155.280000
333.574249	154.640000
333.667603	154.320000
333.760956	154.280000
333.854340	154.660000
333.947693	154.640000
334.041046	154.840000
334.134430	155.140000
334.227783	154.800000
334.321136	154.660000
334.414520	154.640000
334.507874	154.580000
334.601227	154.420000
334.694611	154.380000
334.787964	154.220000
334.881348	154.320000
334.974701	154.360000
335.068085	154.360000
335.161438	154.760000
335.254822	154.800000
335.348175	155.060000
335.441559	154.740000
335.534943	155.660000
335.628296	155.300000
335.721680	155.340000
335.815033	155.280000
335.908417	155.640000
336.001770	154.860000
336.095154	154.860000
336.188538	154.560000
336.281891	154.000000
336.375275	153.540000
336.468658	153.380000
336.562012	153.220000
336.655396	153.700000
336.748779	154.620000
336.842133	154.840000
336.935516	155.300000
337.028900	155.420000
337.122284	155.260000
337.215637	154.900000
337.309021	154.780000
337.402435	154.100000
337.495789	154.040000
337.589203	153.540000
337.682526	153.240000
337.775940	153.640000
337.869324	153.940000
337.962708	153.720000
338.056091	154.420000
338.149475	154.220000
338.242859	154.320000
338.336243	154.200000
338.429626	154.580000
338.523010	154.400000
338.616394	154.420000
338.709778	154.200000
338.803162	154.640000
338.896545	154.740000
338.989929	154.400000
339.083313	154.600000
339.176697	154.280000
339.270081	153.880000
339.363464	154.100000
339.456848	154.620000
339.550232	154.360000
339.643616	154.400000
339.737030	154.600000
339.830383	154.040000
339.923828	153.900000
340.017181	154.100000
340.110596	154.100000
340.203949	153.760000
340.297363	153.880000
340.390778	153.740000
340.484161	153.820000
340.577545	153.940000
340.670959	154.100000
340.764343	153.980000
340.857727	154.420000
340.951111	153.780000
341.044525	154.120000
341.137909	153.600000
341.231293	153.620000
341.324707	153.120000
341.418091	154.400000
341.511505	154.380000
341.604889	154.900000
341.698303	155.260000
341.791687	155.540000
341.885071	154.780000
341.978485	154.360000
342.071899	154.980000
342.165283	154.980000
342.258698	154.880000
342.352081	155.540000
342.445496	156.240000
342.538879	155.560000
342.632324	155.220000
342.725708	155.200000
342.819122	154.480000
342.912506	153.940000
343.005920	154.020000
343.099335	155.160000
343.192719	155.180000
343.286133	155.320000
343.379547	155.480000
343.472931	155.820000
343.566345	154.800000
343.659760	155.080000
343.753143	154.880000
343.846558	154.520000
343.939972	154.280000
344.033386	154.980000
344.126770	154.740000
344.220184	155.160000
344.313599	155.920000
344.407043	155.880000
344.500427	155.320000
344.593872	155.660000
344.687225	155.340000
344.780670	154.560000
344.874054	154.600000
344.967499	155.060000
345.060913	154.680000
345.154327	154.720000
345.247742	154.800000
345.341156	154.520000
345.434570	153.900000
345.527985	153.920000
345.621399	154.020000
345.714813	154.020000
345.808228	154.300000
345.901642	154.160000
345.995056	153.760000
346.088470	153.800000
346.181885	153.920000
346.275299	153.580000
346.368713	153.600000
346.462128	153.600000
346.555573	153.400000
346.648987	153.520000
346.742401	153.760000
346.835815	154.280000
346.929260	154.000000
347.022644	154.500000
347.116119	154.640000
347.209503	154.860000
347.302948	155.520000
347.396362	156.700000
347.489807	156.620000
347.583221	157.360000
347.676636	156.700000
347.770050	155.280000
347.863495	154.400000
347.956909	154.300000
348.050323	153.280000
348.143768	153.740000
348.237183	153.980000
348.330597	154.580000
348.424042	154.660000
348.517456	155.120000
348.610901	155.140000
348.704315	155.380000
348.797760	154.980000
348.891174	154.500000
348.984619	153.720000
349.078033	154.020000
349.171448	154.540000
349.264923	154.320000
349.358337	154.180000
349.451782	154.840000
349.545197	154.000000
349.638641	153.180000
349.732086	152.920000
349.825500	153.580000
349.918945	152.800000
350.012390	153.780000
350.105804	154.500000
350.199249	154.920000
350.292664	155.220000
350.386108	155.640000
350.479553	155.980000
350.572968	155.620000
350.666412	155.840000
350.759857	155.540000
350.853302	156.020000
350.946716	154.980000
351.040161	154.940000
351.133606	154.880000
351.227081	154.420000
351.320465	154.980000
351.413940	155.480000
351.507355	155.720000
351.600830	155.740000
351.694244	155.740000
351.787720	155.220000
351.881104	155.260000
351.974579	155.100000
352.067993	155.680000
352.161469	155.840000
352.254883	155.140000
352.348358	154.760000
352.441803	154.780000
352.535248	154.160000
352.628693	154.640000
352.722137	154.880000
352.815582	155.280000
352.909027	155.460000
353.002472	155.340000
353.095917	155.220000
353.189362	155.680000
353.282806	155.540000
353.376251	155.540000
353.469696	155.320000
353.563141	155.740000
353.656586	155.320000
353.750061	154.780000
353.843475	154.460000
353.936981	155.300000
354.030396	154.660000
354.123871	154.740000
354.217285	155.540000
354.310760	155.980000
354.404175	155.560000
354.497681	155.100000
354.591095	155.200000
354.684570	154.320000
354.777985	153.880000
354.871490	153.680000
354.964935	154.580000
355.058380	154.620000
355.151855	154.580000
355.245300	154.940000
355.338745	155.340000
355.432220	155.140000
355.525665	154.480000
355.619110	155.200000
355.712585	154.840000
355.806030	154.680000
355.899475	154.120000
355.992950	154.800000
356.086426	155.060000
356.179871	155.360000
356.273346	155.340000
356.366791	155.700000
356.460266	155.540000
356.553711	154.580000
356.647186	154.480000
356.740631	154.260000
356.834106	153.840000
356.927551	154.220000
357.021027	154.560000
357.114471	154.500000
357.207947	154.640000
357.301422	155.320000
357.394867	155.160000
357.488342	155.440000
357.581818	155.460000
357.675262	155.700000
357.768738	155.140000
357.862213	154.400000
357.955658	154.620000
358.049133	154.480000
358.142609	154.780000
358.236053	154.800000
358.329529	155.400000
358.423035	155.100000
358.516449	154.820000
358.609955	154.900000
358.703400	155.820000
358.796906	155.940000
358.890350	155.580000
358.983826	156.180000
359.077271	155.300000
359.170776	154.760000
359.264221	154.320000
359.357727	154.740000
359.451172	154.700000
359.544647	154.980000
359.638123	154.600000
359.731598	154.920000
359.825073	154.900000
359.918549	154.880000
360.012024	155.080000
360.105499	154.840000
360.198975	154.700000
360.292450	154.920000
360.385925	154.840000
360.479401	154.260000
360.572876	154.840000
360.666351	155.160000
360.759857	154.760000
360.853302	154.660000
360.946808	154.520000
361.040253	154.560000
361.133759	154.040000
361.227203	154.240000
361.320709	154.040000
361.414154	154.940000
361.507660	155.020000
361.601105	155.600000
361.694641	156.260000
361.788086	156.420000
361.881592	156.500000
361.975067	156.200000
362.068542	156.320000
362.162018	156.080000
362.255524	156.060000
362.348999	155.860000
362.442474	155.940000
362.535950	155.560000
362.629456	154.940000
362.722931	154.700000
362.816406	154.960000
362.909882	155.440000
363.003387	155.180000
363.096863	155.660000
363.190338	155.720000
363.283875	155.260000
363.377319	154.680000
363.470825	155.400000
363.564301	154.920000
363.657806	155.200000
363.751282	154.800000
363.844788	156.040000
363.938232	155.080000
364.031769	155.900000
364.125214	156.100000
364.218750	156.880000
364.312225	155.400000
364.405731	155.820000
364.499207	155.080000
364.592712	154.520000
364.686188	153.920000
364.779694	154.500000
364.873169	154.340000
364.966675	154.320000
365.060150	154.320000
365.153656	154.960000
365.247131	154.480000
365.340637	154.760000
365.434143	155.300000
365.527618	155.540000
365.621155	154.720000
365.714600	154.880000
365.808136	154.980000
365.901611	153.780000
365.995117	153.660000
366.088593	153.740000
366.182129	153.460000
366.275604	153.260000
366.369110	153.760000
366.462585	153.680000
366.556122	154.580000
366.649567	154.660000
366.743103	154.920000
366.836609	154.980000
366.930115	155.480000
367.023590	155.100000
367.117096	155.120000
367.210602	154.800000
367.304108	155.400000
367.397614	155.480000
367.491119	155.660000
367.584595	155.780000
367.678101	156.100000
367.771606	155.400000
367.865112	155.140000
367.958649	154.360000
368.052124	153.980000
368.145660	153.620000
368.239136	154.480000
368.332672	154.760000
368.426147	155.380000
368.519684	155.820000
368.613159	156.000000
368.706696	155.360000
368.800171	155.320000
368.893707	154.760000
368.987183	154.740000
369.080719	154.800000
369.174225	154.620000
369.267731	154.520000
369.361237	154.940000
369.454742	155.040000
369.548248	155.360000
369.641754	155.380000
369.735260	154.940000
369.828766	154.020000
369.922272	154.400000
370.015808	153.860000
370.109314	153.620000
370.202820	153.520000
370.296356	155.180000
370.389832	154.680000
370.483368	154.520000
370.576874	154.440000
370.670410	154.620000
370.763885	153.240000
370.857422	153.220000
370.950928	153.220000
371.044464	154.300000
371.137939	154.620000
371.231476	155.200000
371.324982	155.640000
371.418518	156.080000
371.512024	155.500000
371.605560	155.300000
371.699066	155.220000
371.792572	154.860000
371.886108	154.820000
371.979614	154.540000
372.073120	155.020000
372.166656	155.140000
372.260162	155.400000
372.353668	155.320000
372.447205	155.480000
372.540710	155.080000
372.634277	154.780000
372.727753	155.100000
372.821320	155.100000
372.914795	155.060000
373.008362	154.900000
373.101837	155.360000
373.195404	154.820000
373.288879	154.820000
373.382446	155.480000
373.475922	155.660000
373.569489	156.040000
373.662964	156.340000
373.756531	156.440000
373.850037	156.200000
373.943573	155.900000
374.037109	154.700000
374.130615	154.900000
374.224152	154.740000
374.317657	154.620000
374.411194	155.760000
374.504730	156.020000
374.598236	155.700000
374.691772	155.500000
374.785309	155.540000
374.878815	154.180000
374.972351	154.620000
375.065887	154.460000
375.159454	155.180000
375.252930	154.800000
375.346497	155.440000
375.440002	156.040000
375.533569	156.020000
375.627045	155.500000
375.720612	155.760000
375.814117	155.940000
375.907684	154.900000
376.001160	154.860000
376.094727	154.380000
376.188232	155.080000
376.281799	155.100000
376.375336	155.140000
376.468872	155.660000
376.562408	155.920000
376.655914	154.960000
376.749451	154.500000
376.842987	154.860000
376.936523	154.340000
377.030060	154.520000
377.123596	155.200000
377.217133	154.600000
377.310669	154.400000
377.404205	154.720000
377.497772	155.160000
377.591278	154.780000
377.684845	155.840000
377.778351	156.220000
377.871918	155.840000
377.965424	155.060000
378.058990	154.800000
378.152496	154.500000
378.246063	154.480000
378.339569	155.020000
378.433136	155.220000
378.526642	155.540000
378.620209	155.880000
378.713745	155.520000
378.807312	155.720000
378.900848	155.660000
378.994385	155.820000
379.087921	154.640000
379.181458	155.060000
379.274994	154.280000
379.368530	154.420000
379.462097	154.420000
379.555634	155.300000
379.649170	154.580000
379.742706	154.680000
379.836273	154.820000
379.929810	154.380000
380.023376	154.100000
380.116882	154.420000
380.210449	154.340000
380.303986	154.080000
380.397552	154.240000
380.491058	154.640000
380.584656	154.500000
380.678162	155.000000
380.771729	154.960000
380.865265	155.680000
380.958832	155.600000
381.052368	156.040000
381.145935	156.080000
381.239471	156.540000
381.333008	156.020000
381.426575	155.920000
381.520111	156.260000
381.613647	156.260000
381.707214	156.200000
381.800751	155.860000
381.894318	155.900000
381.987854	154.960000
382.081421	154.820000
382.174988	154.980000
382.268524	154.780000
382.362091	154.840000
382.455627	155.860000
382.549194	155.480000
382.642731	154.620000
382.736298	154.560000
382.829834	154.240000
382.923401	154.580000
383.016937	154.820000
383.110504	155.640000
383.204041	156.020000
383.297607	156.440000
383.391174	154.900000
383.484741	155.660000
383.578278	155.120000
383.671844	154.640000
383.765411	153.920000
383.858948	154.860000
383.952515	154.300000
384.046051	154.820000
384.139618	155.260000
384.233185	155.740000
384.326721	155.600000
384.420288	155.880000
384.513855	155.760000
384.607422	156.060000
384.700989	156.540000
384.794525	156.180000
384.888123	155.960000
384.981659	156.020000
385.075226	155.660000
385.168762	155.140000
385.262360	155.540000
385.355896	154.800000
385.449463	154.620000
385.542999	154.320000
385.636597	155.060000
385.730164	154.880000
385.823730	154.800000
385.917267	154.260000
386.010834	154.800000
386.104401	154.460000
386.197968	154.860000
386.291534	155.520000
386.385101	155.740000
386.478668	155.900000
386.572235	155.660000
386.665802	154.740000
386.759338	154.160000
386.852905	153.880000
386.946472	153.140000
387.040070	153.360000
387.133606	153.460000
387.227203	153.680000
387.320740	154.220000
387.414337	154.060000
387.507874	153.760000
387.601471	154.100000
387.695007	153.940000
387.788605	153.720000
387.882141	154.260000
387.975739	154.280000
388.069275	154.020000
388.162872	154.120000
388.256439	154.100000
388.350037	154.000000
388.443604	153.860000
388.537170	154.020000
388.630737	154.620000
388.724304	154.740000
388.817871	154.300000
388.911438	154.500000
389.005005	154.480000
389.098602	154.520000
389.192169	154.340000
389.285736	155.140000
389.379333	154.900000
389.472870	154.660000
389.566467	154.500000
389.660034	154.640000
389.753632	154.120000
389.847168	154.640000
389.940765	155.260000
390.034332	155.560000
390.127930	155.320000
390.221466	155.220000
390.315063	154.860000
390.408630	153.960000
390.502228	152.960000
390.595795	153.100000
390.689362	153.480000
390.782959	153.840000
390.876526	154.440000
390.970093	154.780000
391.063690	155.220000
391.157257	155.320000
391.250824	155.560000
391.344421	155.380000
391.437988	155.720000
391.531555	155.820000
391.625153	155.820000
391.718750	155.680000
391.812317	155.880000
391.905914	155.600000
391.999481	155.520000
392.093079	155.600000
392.186615	155.960000
392.280243	155.800000
392.373779	155.940000
392.467407	156.400000
392.560944	156.240000
392.654572	155.160000
392.748108	155.180000
392.841736	155.400000
392.935303	154.700000
393.028900	154.520000
393.122467	154.940000
393.216064	154.700000
393.309631	153.960000
393.403229	153.720000
393.496796	153.560000
393.590393	153.000000
393.683990	153.480000
393.777557	154.260000
393.871155	154.620000
393.964722	155.120000
394.058350	155.540000
394.151917	155.440000
394.245514	155.020000
394.339081	155.400000
394.432678	155.760000
394.526245	155.640000
394.619873	155.220000
394.713409	155.280000
394.807037	154.620000
394.900604	154.440000
394.994202	154.400000
395.087769	154.960000
395.181396	154.640000
395.274994	155.600000
395.368561	154.820000
395.462158	155.120000
395.555756	154.620000
395.649353	155.020000
395.742920	154.240000
395.836517	155.160000
395.930115	154.460000
396.023712	154.900000
396.117279	155.160000
396.210876	154.760000
396.304474	154.380000
396.398071	154.880000
396.491669	154.820000
396.585266	154.280000
396.678833	154.200000
396.772461	154.440000
396.866028	154.180000
396.959656	153.980000
397.053223	154.280000
397.146851	154.180000
397.240417	153.920000
397.334015	155.040000
397.427582	154.740000
397.521210	154.680000
397.614807	155.380000
397.708405	155.540000
397.802002	154.820000
397.895599	155.880000
397.989197	155.980000
398.082794	155.760000
398.176392	155.940000
398.269989	155.880000
398.363586	155.320000
398.457184	156.000000
398.550781	156.260000
398.644379	155.640000
398.737976	155.880000
398.831573	156.240000
398.925201	155.740000
399.018768	156.660000
399.112396	158.600000
399.205963	161.320000
399.299591	164.820000
399.393158	170.100000
399.486786	178.020000
399.580353	190.880000
399.673981	215.800000
399.767578	259.360000
399.861206	323.120000
399.954773	399.180000
400.048401	470.980000
400.141998	517.880000
400.235596	526.520000
400.329193	493.460000
400.422791	429.600000
400.516418	353.760000
400.610016	284.780000
400.703613	233.320000
400.797211	199.380000
400.890808	180.440000
400.984436	171.660000
401.078033	167.360000
401.171631	163.800000
401.265259	162.480000
401.358826	161.440000
401.452484	160.540000
401.546051	159.880000
401.639679	159.480000
401.733246	158.940000
401.826904	158.100000
401.920471	156.980000
402.014099	156.720000
402.107697	156.300000
402.201324	156.180000
402.294891	156.380000
402.388550	156.940000
402.482147	156.700000
402.575745	156.440000
402.669373	155.720000
402.762970	155.320000
402.856567	155.060000
402.950195	155.040000
403.043793	154.940000
403.137390	155.860000
403.231018	154.980000
403.324615	155.680000
403.418243	155.240000
403.511841	155.540000
403.605469	155.220000
403.699066	156.240000
403.792694	155.960000
403.886292	156.200000
403.979919	156.280000
404.073517	155.760000
404.167145	155.660000
404.260712	155.420000
404.354370	155.140000
404.447937	155.200000
404.541595	155.760000
404.635162	155.900000
404.728821	156.200000
404.822418	156.040000
404.916046	155.740000
405.009644	155.800000
405.103271	155.880000
405.196899	155.580000
405.290497	155.760000
405.384125	155.940000
405.477722	155.180000
405.571350	154.640000
405.664948	154.600000
405.758575	154.460000
405.852203	154.020000
405.945801	154.260000
406.039429	154.300000
406.133057	154.000000
406.226654	153.920000
406.320312	153.900000
406.413879	154.200000
406.507538	154.640000
406.601135	154.480000
406.694763	155.140000
406.788361	155.220000
406.882019	155.000000
406.975586	155.140000
407.069244	155.800000
407.162872	155.600000
407.256470	155.600000
407.350098	155.380000
407.443726	154.720000
407.537323	154.000000
407.630951	154.180000
407.724579	153.940000
407.818207	154.700000
407.911804	154.900000
408.005432	155.120000
408.099060	155.260000
408.192688	156.040000
408.286285	155.400000
408.379913	155.120000
408.473572	155.280000
408.567169	154.300000
408.660828	154.160000
408.754395	154.100000
408.848053	154.120000
408.941650	154.300000
409.035309	154.280000
409.128906	153.960000
409.222565	154.400000
409.316132	154.920000
409.409790	154.600000
409.503387	155.200000
409.597046	155.320000
409.690674	155.260000
409.784302	155.020000
409.877930	155.060000
409.971558	154.920000
410.065186	154.660000
410.158783	154.500000
410.252411	154.680000
410.346039	155.340000
410.439667	155.460000
410.533295	155.820000
410.626923	156.280000
410.720551	155.720000
410.814209	155.660000
410.907806	155.740000
411.001465	155.040000
411.095062	154.940000
411.188721	155.460000
411.282318	155.260000
411.375977	154.800000
411.469574	155.140000
411.563232	154.900000
411.656830	154.700000
411.750488	154.300000
411.844086	154.400000
411.937744	154.840000
412.031372	154.440000
412.125000	154.420000
412.218628	154.480000
412.312256	155.280000
412.405884	155.580000
412.499512	155.680000
412.593170	155.880000
412.686798	156.180000
412.780426	155.420000
412.874054	155.300000
412.967682	155.420000
413.061310	156.060000
413.154968	156.160000
413.248566	156.200000
413.342224	155.800000
413.435852	155.920000
413.529510	155.080000
413.623108	154.300000
413.716766	154.240000
413.810364	154.740000
413.904022	154.240000
413.997650	154.380000
414.091309	155.260000
414.184906	155.120000
414.278564	154.480000
414.372192	155.440000
414.465851	155.600000
414.559479	155.280000
414.653107	156.100000
414.746735	156.280000
414.840393	155.940000
414.934021	155.940000
415.027649	155.300000
415.121277	155.220000
415.214935	155.660000
415.308563	155.560000
415.402191	154.800000
415.495850	155.220000
415.589478	154.720000
415.683136	154.260000
415.776733	154.440000
415.870422	155.360000
415.964020	154.780000
416.057678	154.860000
416.151306	155.100000
416.244965	154.580000
416.338562	154.200000
416.432251	155.400000
416.525848	156.280000
416.619507	156.520000
416.713165	157.080000
416.806793	157.080000
416.900421	156.740000
416.994080	155.640000
417.087708	155.280000
417.181366	154.960000
417.274994	154.920000
417.368622	155.080000
417.462280	155.860000
417.555908	155.780000
417.649567	155.640000
417.743195	155.660000
417.836853	155.520000
417.930481	155.220000
418.024170	155.560000
418.117767	156.140000
418.211426	156.600000
418.305054	156.720000
418.398712	156.260000
418.492340	155.880000
418.585999	155.840000
418.679626	155.680000
418.773285	155.460000
418.866913	155.700000
418.960571	156.000000
419.054230	155.920000
419.147858	155.960000
419.241516	156.240000
419.335144	156.160000
419.428802	156.120000
419.522461	155.560000
419.616089	155.020000
419.709747	155.060000
419.803375	155.300000
419.897034	155.020000
419.990662	155.240000
420.084320	155.760000
420.177979	155.780000
420.271606	155.980000
420.365295	156.620000
420.458893	157.000000
420.552582	157.260000
420.646210	157.060000
420.739868	156.360000
420.833496	155.520000
420.927155	154.580000
421.020782	153.660000
421.114471	153.360000
421.208069	153.920000
421.301758	154.320000
421.395386	155.040000
421.489044	155.220000
421.582703	155.460000
421.676361	155.660000
421.769989	155.560000
421.863647	155.940000
421.957306	156.320000
422.050934	156.480000
422.144592	156.240000
422.238251	155.820000
422.331909	155.300000
422.425537	154.920000
422.519196	155.000000
422.612854	154.740000
422.706543	154.820000
422.800140	155.360000
422.893829	155.260000
422.987457	154.580000
423.081146	154.680000
423.174744	155.420000
423.268433	154.860000
423.362061	154.960000
423.455750	155.120000
423.549347	155.320000
423.643036	154.480000
423.736664	155.160000
423.830353	155.420000
423.924011	156.000000
424.017639	155.440000
424.111298	155.520000
424.204956	155.240000
424.298615	155.400000
424.392273	155.020000
424.485931	155.400000
424.579559	155.740000
424.673218	155.480000
424.766876	155.160000
424.860535	154.720000
424.954193	154.620000
425.047882	154.860000
425.141510	154.800000
425.235199	155.040000
425.328796	155.320000
425.422485	154.900000
425.516113	154.040000
425.609802	153.920000
425.703430	154.080000
425.797119	154.000000
425.890747	154.480000
425.984436	155.000000
426.078064	155.340000
426.171753	155.240000
426.265411	155.100000
426.359070	155.180000
426.452728	155.260000
426.546356	155.260000
426.640015	154.960000
426.733673	155.100000
426.827332	154.820000
426.920990	155.860000
427.014648	155.540000
427.108307	155.880000
427.201965	156.560000
427.295624	156.960000
427.389282	155.900000
427.482941	156.200000
427.576630	156.000000
427.670258	155.160000
427.763947	155.120000
427.857574	155.040000
427.951263	154.900000
428.044922	154.860000
428.138611	155.220000
428.232239	155.460000
428.325928	156.340000
428.419556	157.020000
428.513245	156.960000
428.606903	157.200000
428.700562	156.700000
428.794220	155.740000
428.887878	155.140000
428.981537	155.400000
429.075195	155.340000
429.168854	155.860000
429.262512	156.280000
429.356201	156.440000
429.449860	156.320000
429.543518	156.200000
429.637177	156.360000
429.730835	156.060000
429.824493	155.840000
429.918182	156.220000
430.011810	156.020000
430.105530	155.180000
430.199158	155.760000
430.292847	155.760000
430.386475	155.180000
430.480164	155.040000
430.573792	154.940000
430.667511	154.620000
430.761139	154.620000
430.854828	155.360000
430.948456	155.280000
431.042145	155.940000
431.135834	155.720000
431.229492	155.780000
431.323151	155.640000
431.416809	155.940000
431.510468	155.800000
431.604156	155.640000
431.697815	156.000000
431.791473	155.320000
431.885132	155.100000
431.978821	155.360000
432.072479	155.920000
432.166138	155.860000
432.259827	156.080000
432.353485	156.300000
432.447174	156.500000
432.540802	156.140000
432.634491	156.340000
432.728149	156.680000
432.821838	157.260000
432.915466	156.320000
433.009186	156.440000
433.102814	155.680000
433.196503	155.340000
433.290131	155.140000
433.383850	155.900000
433.477509	156.020000
433.571167	157.120000
433.664856	157.740000
433.758514	157.980000
433.852173	157.820000
433.945862	157.680000
434.039520	156.880000
434.133179	156.160000
434.226868	155.760000
434.320526	154.960000
434.414185	155.680000
434.507874	155.400000
434.601562	155.760000
434.695221	155.440000
434.788910	155.900000
434.882538	155.620000
434.976257	155.680000
435.069885	155.620000
435.163574	156.060000
435.257233	155.820000
435.350922	155.580000
435.444580	155.440000
435.538269	154.940000
435.631897	155.040000
435.725616	155.500000
435.819275	155.980000
435.912964	156.660000
436.006622	157.520000
436.100311	157.440000
436.193970	157.060000
436.287628	156.220000
436.381317	155.680000
436.474976	155.020000
436.568665	154.600000
436.662323	154.840000
436.756012	154.820000
436.849670	154.800000
436.943390	155.020000
437.037018	155.120000
437.130737	155.100000
437.224365	154.900000
437.318085	155.180000
437.411713	155.160000
437.505432	155.560000
437.599060	155.940000
437.692780	156.900000
437.786407	156.840000
437.880127	156.760000
437.973755	156.140000
438.067474	155.580000
438.161133	155.200000
438.254822	155.460000
438.348480	155.100000
438.442169	155.840000
438.535828	156.140000
438.629517	155.920000
438.723175	155.280000
438.816864	156.140000
438.910553	155.620000
439.004211	155.540000
439.097900	155.260000
439.191559	155.620000
439.285248	154.700000
439.378906	155.000000
439.472626	154.900000
439.566284	154.740000
439.659973	154.680000
439.753632	154.680000
439.847321	155.000000
439.940979	154.900000
440.034698	155.360000
440.128326	155.240000
440.222046	155.460000
440.315674	154.040000
440.409393	154.180000
440.503082	153.800000
440.596741	154.260000
440.690430	154.360000
440.784088	154.960000
440.877777	154.300000
440.971466	154.500000
441.065125	153.840000
441.158813	153.660000
441.252502	153.780000
441.346161	154.520000
441.439850	154.940000
441.533539	154.740000
441.627197	155.040000
441.720886	154.920000
441.814606	155.160000
441.908234	155.220000
442.001953	155.540000
442.095612	155.440000
442.189301	155.740000
442.282959	155.420000
442.376678	154.420000
442.470306	154.820000
442.564026	154.740000
442.657684	154.760000
442.751404	154.620000
442.845032	155.680000
442.938751	154.840000
443.032440	154.780000
443.126099	154.440000
443.219788	155.160000
443.313477	154.800000
443.407166	155.400000
443.500824	155.380000
443.594513	155.700000
443.688202	155.140000
443.781891	154.700000
443.875549	154.420000
443.969238	154.620000
444.062927	154.480000
444.156647	154.460000
444.250275	155.060000
444.343994	155.280000
444.437653	155.280000
444.531372	155.300000
444.625031	155.080000
444.718719	154.400000
444.812378	154.440000
444.906097	154.220000
444.999756	153.780000
445.093445	153.900000
445.187103	154.320000
445.280823	154.820000
445.374512	154.480000
445.468201	154.900000
445.561859	154.940000
445.655548	154.760000
445.749237	153.880000
445.842926	153.960000
445.936615	154.240000
446.030304	153.940000
446.123962	154.580000
446.217651	154.620000
446.311340	155.060000
446.405029	154.520000
446.498749	154.440000
446.592407	153.680000
446.686096	153.900000
446.779755	153.880000
446.873474	154.240000
446.967133	154.720000
447.060852	154.580000
447.154510	154.640000
447.248230	154.660000
447.341858	154.800000
447.435577	154.300000
447.529236	154.240000
447.622955	153.920000
447.716644	153.980000
447.810333	153.820000
447.904022	154.580000
447.997711	154.520000
448.091400	155.020000
448.185059	154.660000
448.278748	154.420000
448.372437	153.820000
448.466125	154.380000
448.559814	154.520000
448.653503	155.200000
448.747192	155.860000
448.840912	156.480000
448.934570	156.180000
449.028290	156.360000
449.121948	155.820000
449.215637	155.140000
449.309296	154.600000
449.403015	154.940000
449.496674	154.400000
449.590393	154.620000
449.684052	154.620000
449.777771	155.520000
449.871429	154.920000
449.965149	154.820000
450.058838	155.320000
450.152527	155.880000
450.246216	155.140000
450.339905	155.420000
450.433594	155.520000
450.527283	155.660000
450.620972	155.040000
450.714661	155.220000
450.808350	155.260000
450.902039	155.480000
450.995728	154.960000
451.089417	154.900000
451.183105	154.640000
451.276794	155.360000
451.370514	154.600000
451.464172	153.840000
451.557892	153.720000
451.651550	154.000000
451.745270	153.200000
451.838928	153.240000
451.932648	153.760000
452.026306	154.340000
452.120026	153.940000
452.213684	154.560000
452.307404	155.020000
452.401062	155.180000
452.494781	155.480000
452.588470	155.420000
452.682159	154.860000
452.775848	154.720000
452.869537	154.120000
452.963226	153.320000
453.056915	153.360000
453.150604	153.380000
453.244293	153.620000
453.337982	154.500000
453.431671	154.960000
453.525360	155.600000
453.619049	155.560000
453.712769	155.340000
453.806427	154.740000
453.900146	154.240000
453.993805	153.960000
454.087555	154.520000
454.181213	154.360000
454.274933	154.400000
454.368591	154.520000
454.462311	154.280000
454.555969	153.920000
454.649689	155.060000
454.743347	154.820000
454.837067	155.680000
454.930756	156.420000
455.024445	156.560000
455.118134	155.740000
455.211853	156.040000
455.305542	155.540000
455.399231	155.260000
455.492920	155.220000
455.586609	155.540000
455.680298	156.060000
455.773987	155.200000
455.867676	155.020000
455.961365	155.340000
456.055084	154.880000
456.148773	154.160000
456.242493	154.760000
456.336151	154.720000
456.429871	154.700000
456.523529	155.140000
456.617249	155.060000
456.710907	155.740000
456.804626	155.680000
456.898315	155.160000
456.992035	155.120000
457.085693	155.020000
457.179413	154.020000
457.273102	155.120000
457.366791	155.080000
457.460480	155.300000
457.554199	156.160000
457.647888	156.460000
457.741577	155.480000
457.835266	155.720000
457.928955	155.640000
458.022644	155.520000
458.116364	155.840000
458.210052	155.920000
458.303741	155.980000
458.397461	155.440000
458.491119	154.900000
458.584839	154.860000
458.678528	154.540000
458.772247	153.960000
458.865906	154.480000
458.959625	155.440000
459.053284	155.380000
459.147003	155.300000
459.240692	156.140000
459.334412	156.140000
459.428070	155.360000
459.521790	155.200000
459.615479	155.420000
459.709198	155.780000
459.802887	154.880000
459.896576	154.920000
459.990265	155.120000
460.083954	155.180000
460.177673	154.480000
460.271362	155.220000
460.365051	155.240000
460.458740	155.120000
460.552429	154.820000
460.646149	154.940000
460.739838	154.220000
460.833527	154.320000
460.927246	153.900000
461.020905	153.860000
461.114655	153.820000
461.208313	154.420000
461.302032	154.140000
461.395691	154.460000
461.489441	154.340000
461.583099	154.120000
461.676819	153.800000
461.770477	154.300000
461.864197	154.020000
461.957916	154.260000
462.051605	153.780000
462.145294	154.900000
462.238983	154.360000
462.332703	155.380000
462.426392	155.980000
462.520081	156.060000
462.613770	155.100000
462.707489	155.540000
462.801178	154.720000
462.894867	154.080000
462.988556	154.100000
463.082275	154.440000
463.175964	153.840000
463.269684	153.960000
463.363342	154.020000
463.457092	153.560000
463.550751	153.660000
463.644470	154.100000
463.738129	153.940000
463.831879	154.120000
463.925537	155.420000
464.019257	155.260000
464.112946	155.180000
464.206665	155.200000
464.300323	154.960000
464.394043	154.460000
464.487762	154.080000
464.581451	154.380000
464.675140	154.400000
464.768829	154.800000
464.862549	154.940000
464.956238	155.320000
465.049927	155.020000
465.143646	155.340000
465.237335	154.820000
465.331024	155.180000
465.424713	155.140000
465.518433	155.320000
465.612152	154.860000
465.705811	155.060000
465.799561	154.680000
465.893219	154.400000
465.986938	154.160000
466.080597	153.860000
466.174347	154.420000
466.268005	154.460000
466.361725	154.760000
466.455414	154.700000
466.549133	155.000000
466.642792	154.500000
466.736542	154.060000
466.830231	154.140000
466.923920	154.260000
467.017609	154.480000
467.111328	154.240000
467.205017	154.620000
467.298706	154.400000
467.392426	154.660000
467.486115	154.860000
467.579803	154.600000
467.673523	154.800000
467.767212	155.260000
467.860901	154.900000
467.954651	155.100000
468.048309	155.900000
468.142029	155.780000
468.235718	155.520000
468.329437	155.380000
468.423096	155.000000
468.516846	154.480000
468.610504	154.060000
468.704224	153.420000
468.797913	153.500000
468.891632	153.640000
468.985291	153.740000
469.079010	154.080000
469.172729	154.000000
469.266418	154.340000
469.360107	154.220000
469.453827	154.400000
469.547516	154.360000
469.641205	155.120000
469.734924	155.200000
469.828613	155.980000
469.922302	155.940000
470.016022	155.920000
470.109711	155.840000
470.203430	155.100000
470.297150	153.740000
470.390808	154.120000
470.484558	153.960000
470.578217	154.100000
470.671936	154.900000
470.765625	156.060000
470.859344	155.640000
470.953003	156.040000
471.046753	155.560000
471.140411	154.960000
471.234131	154.640000
471.327820	155.420000
471.421539	155.120000
471.515228	155.080000
471.608948	155.140000
471.702637	154.580000
471.796326	153.580000
471.890045	153.960000
471.983734	154.200000
472.077423	154.120000
472.171143	154.500000
472.264832	154.660000
472.358521	154.300000
472.452240	153.980000
472.545929	154.780000
472.639648	154.720000
472.733337	154.900000
472.827057	155.160000
472.920746	155.420000
473.014465	155.320000
473.108124	155.540000
473.201874	155.660000
473.295532	155.180000
473.389252	155.620000
473.482941	155.420000
473.576660	154.980000
473.670319	154.500000
473.764069	155.080000
473.857727	154.860000
473.951477	155.380000
474.045166	156.060000
474.138855	156.380000
474.232574	156.000000
474.326263	156.100000
474.419952	155.800000
474.513672	155.580000
474.607361	155.120000
474.701050	155.300000
474.794769	155.840000
474.888458	156.020000
474.982178	155.480000
475.075867	155.760000
475.169586	155.420000
475.263275	154.720000
475.356995	154.400000
475.450653	154.640000
475.544403	154.240000
475.638062	155.380000
475.731812	155.000000
475.825470	154.840000
475.919189	155.000000
476.012878	155.640000
476.106598	154.760000
476.200256	155.480000
476.294006	155.640000
476.387695	155.620000
476.481384	155.260000
476.575104	155.500000
476.668793	154.840000
476.762512	154.400000
476.856201	154.700000
476.949890	154.580000
477.043610	153.920000
477.137299	154.080000
477.230988	154.200000
477.324707	153.940000
477.418396	154.460000
477.512146	154.880000
477.605804	155.020000
477.699524	155.340000
477.793213	155.160000
477.886932	154.960000
477.980591	154.660000
478.074341	154.240000
478.167999	153.620000
478.261749	153.660000
478.355408	153.360000
478.449127	154.140000
478.542816	155.260000
478.636536	156.420000
478.730225	156.600000
478.823944	157.040000
478.917633	156.860000
479.011322	156.680000
479.105042	156.200000
479.198730	156.380000
479.292450	156.420000
479.386139	156.560000
479.479828	156.200000
479.573547	156.360000
479.667267	156.200000
479.760925	155.980000
479.854675	155.800000
479.948334	155.720000
480.042084	155.060000
480.135742	155.280000
480.229462	155.020000
480.323151	154.740000
480.416870	154.220000
480.510529	154.220000
480.604279	153.520000
480.697937	154.220000
480.791656	153.920000
480.885345	153.940000
480.979065	154.140000
481.072754	154.820000
481.166473	154.960000
481.260132	155.360000
481.353882	155.500000
481.447540	155.440000
481.541260	155.280000
481.635010	154.660000
481.728668	154.300000
481.822388	154.200000
481.916077	154.240000
482.009796	154.000000
482.103485	154.140000
482.197205	154.680000
482.290863	155.020000
482.384613	154.840000
482.478271	154.860000
482.571991	155.000000
482.665680	154.520000
482.759399	154.760000
482.853058	155.520000
482.946808	155.500000
483.040466	155.180000
483.134216	155.280000
483.227875	154.940000
483.321594	154.800000
483.415283	154.840000
483.509003	155.000000
483.602661	154.880000
483.696411	155.240000
483.790070	154.980000
483.883789	154.640000
483.977478	154.900000
484.071198	155.080000
484.164917	154.500000
484.258606	154.080000
484.352325	154.360000
484.445984	154.120000
484.539734	153.880000
484.633392	153.800000
484.727142	154.580000
484.820801	154.460000
484.914520	154.500000
485.008209	154.740000
485.101929	155.360000
485.195587	154.520000
485.289337	154.680000
485.382996	154.560000
485.476715	154.560000
485.570404	154.800000
485.664124	155.120000
485.757782	155.720000
485.851532	155.300000
485.945190	155.100000
486.038910	154.900000
486.132599	155.220000
486.226318	154.260000
486.319977	154.600000
486.413727	155.020000
486.507446	154.400000
486.601105	153.680000
486.694855	153.740000
486.788513	153.600000
486.882233	153.440000
486.975922	153.580000
487.069641	153.920000
487.163300	153.920000
487.257050	154.780000
487.350708	154.540000
487.444427	154.480000
487.538116	154.360000
487.631836	154.540000
487.725494	154.000000
487.819214	154.020000
487.912903	154.000000
488.006622	154.100000
488.100281	154.460000
488.194031	154.520000
488.287689	154.600000
488.381409	155.340000
488.475098	155.300000
488.568817	155.100000
488.662476	154.680000
488.756226	154.640000
488.849945	153.520000
488.943604	153.580000
489.037354	153.760000
489.131012	153.900000
489.224731	153.760000
489.318390	153.940000
489.412140	153.920000
489.505798	153.640000
489.599518	153.440000
489.693207	153.840000
489.786926	153.940000
489.880585	153.860000
489.974335	154.060000
490.067993	155.220000
490.161713	155.300000
490.255371	156.320000
490.349121	156.520000
490.442780	156.160000
490.536499	155.120000
490.630188	155.120000
490.723907	154.060000
490.817566	154.460000
490.911285	154.920000
491.004974	154.760000
491.098694	154.320000
491.192413	155.380000
491.286102	154.760000
491.379822	154.820000
491.473480	155.200000
491.567200	155.300000
491.660889	154.020000
491.754608	154.180000
491.848267	153.780000
491.941986	153.720000
492.035675	153.940000
492.129395	154.660000
492.223053	154.420000
492.316772	154.680000
492.410461	154.800000
492.504181	154.560000
492.597839	154.200000
492.691559	154.660000
492.785248	155.060000
492.878967	155.040000
492.972626	154.720000
493.066345	155.000000
493.160034	154.440000
493.253754	153.820000
493.347412	153.360000
493.441132	153.660000
493.534882	154.060000
493.628540	154.400000
493.722260	154.580000
493.815918	154.960000
493.909668	155.620000
494.003326	155.780000
494.097046	155.480000
494.190704	155.280000
494.284454	155.360000
494.378113	155.120000
494.471832	154.140000
494.565491	154.320000
494.659210	154.280000
494.752899	154.020000
494.846619	153.640000
494.940277	154.280000
495.033997	154.120000
495.127686	153.980000
495.221405	153.960000
495.315063	154.180000
495.408783	154.080000
495.502441	154.340000
495.596191	154.660000
495.689850	154.500000
495.783569	154.980000
495.877228	155.080000
495.970947	154.800000
496.064697	154.640000
496.158356	155.840000
496.252075	155.120000
496.345734	154.800000
496.439453	155.820000
496.533142	155.780000
496.626862	155.300000
496.720520	155.620000
496.814240	155.860000
496.907898	155.180000
497.001617	155.400000
497.095306	154.980000
497.189026	154.760000
497.282684	154.880000
497.376404	155.100000
497.470062	155.000000
497.563782	154.900000
497.657471	154.760000
497.751190	154.560000
497.844849	154.280000
497.938568	154.580000
498.032227	154.700000
498.125946	154.940000
498.219635	154.660000
498.313354	154.640000
498.407074	154.200000
498.500732	154.520000
498.594452	154.720000
498.688110	154.380000
498.781830	154.220000
498.875519	154.180000
498.969238	153.800000
499.062897	153.340000
499.156616	154.320000
499.250275	154.620000
499.343994	154.340000
499.437653	154.460000
499.531372	154.640000
499.625061	154.900000
499.718781	155.080000
499.812439	155.780000
499.906158	155.620000
499.999817	155.680000
500.093536	154.900000
500.187195	154.860000
500.280914	154.800000
500.374573	155.120000
500.468323	154.820000
500.561981	155.420000
500.655701	154.960000
500.749420	154.520000
500.843079	154.440000
500.936798	154.880000
501.030457	154.700000
501.124176	154.900000
501.217834	155.080000
501.311554	155.160000
501.405212	154.760000
501.498962	154.020000
501.592621	154.060000
501.686340	154.380000
501.779999	154.700000
501.873718	155.040000
501.967377	155.720000
502.061096	156.040000
502.154755	155.480000
502.248474	155.180000
502.342133	155.020000
502.435852	154.900000
502.529510	155.440000
502.623230	156.320000
502.716888	155.860000
502.810608	156.040000
502.904266	155.960000
502.997986	155.200000
503.091705	154.680000
503.185364	154.940000
503.279083	155.020000
503.372772	154.940000
503.466492	154.520000
503.560150	154.480000
503.653870	154.680000
503.747528	154.560000
503.841248	154.620000
503.934906	154.840000
504.028625	154.520000
504.122284	154.540000
504.216003	154.940000
504.309662	154.560000
504.403381	155.000000
504.497040	155.140000
504.590759	154.880000
504.684418	155.280000
504.778137	156.160000
504.871796	156.340000
504.965515	156.220000
505.059174	156.420000
505.152893	155.480000
505.246521	154.680000
505.340240	154.160000
505.433899	154.120000
505.527618	154.060000
505.621338	154.600000
505.714996	154.840000
505.808716	154.900000
505.902374	155.580000
505.996094	155.700000
506.089752	155.180000
506.183472	154.900000
506.277130	155.160000
506.370850	155.100000
506.464508	154.860000
506.558228	154.920000
506.651886	154.900000
506.745605	154.540000
506.839264	154.540000
506.932983	154.620000
507.026611	154.480000
507.120331	154.960000
507.213989	154.280000
507.307709	154.060000
507.401367	154.400000
507.495087	155.460000
507.588745	154.860000
507.682465	156.260000
507.776123	156.000000
507.869843	155.600000
507.963531	155.080000
508.057190	155.860000
508.150909	154.780000
508.244568	155.140000
508.338287	154.580000
508.431946	154.020000
508.525665	153.400000
508.619324	153.520000
508.713013	153.900000
508.806671	154.820000
508.900391	155.760000
508.994049	156.140000
509.087769	155.800000
509.181427	155.540000
509.275146	155.120000
509.368774	154.080000
509.462494	154.020000
509.556152	154.400000
509.649872	154.800000
509.743530	154.820000
509.837250	155.100000
509.930878	155.200000
510.024597	155.200000
510.118256	154.320000
510.211975	154.460000
510.305695	154.200000
510.399353	154.220000
510.493042	155.180000
510.586700	155.620000
510.680420	156.300000
510.774078	156.520000
510.867798	156.860000
510.961426	155.860000
511.055145	155.840000
511.148804	155.140000
511.242523	155.840000
511.336151	155.580000
511.429871	156.120000
511.523529	155.920000
511.617249	155.480000
511.710876	154.980000
511.804596	154.520000
511.898254	154.340000
511.991974	154.640000
512.085632	154.780000
512.179321	154.980000
512.272949	155.540000
512.366699	155.700000
512.460327	155.520000
512.554077	156.680000
512.647766	156.200000
512.741394	155.780000
512.835144	156.480000
512.928772	156.040000
513.022461	155.480000
513.116150	155.280000
513.209839	156.040000
513.303467	155.060000
513.397217	155.020000
513.490845	154.580000
513.584595	154.760000
513.678223	153.880000
513.771912	153.680000
513.865601	154.180000
513.959290	154.120000
514.052917	154.380000
514.146667	155.220000
514.240295	155.560000
514.333984	155.420000
514.427673	155.160000
514.521362	155.260000
514.614990	154.380000
514.708740	154.300000
514.802368	154.620000
514.896057	154.840000
514.989746	155.380000
515.083435	155.440000
515.177124	155.600000
515.270752	155.040000
515.364502	155.180000
515.458130	155.100000
515.551819	154.980000
515.645508	154.820000
515.739197	154.960000
515.832825	154.780000
515.926575	154.220000
516.020203	154.860000
516.113892	155.460000
516.207520	155.560000
516.301270	155.760000
516.394897	155.620000
516.488586	155.820000
516.582275	155.700000
516.675964	154.960000
516.769592	155.060000
516.863281	155.920000
516.956970	155.840000
517.050659	155.180000
517.144287	155.860000
517.238037	155.700000
517.331665	154.620000
517.425354	154.060000
517.519043	154.080000
517.612732	154.280000
517.706421	154.440000
517.800049	154.440000
517.893738	154.020000
517.987427	154.000000
518.081116	153.580000
518.174744	153.220000
518.268433	153.640000
518.362122	154.540000
518.455811	154.720000
518.549438	155.680000
518.643127	156.740000
518.736816	156.580000
518.830505	156.240000
518.924133	156.300000
519.017822	155.820000
519.111511	155.160000
519.205200	155.540000
519.298828	155.420000
519.392517	155.160000
519.486206	155.320000
519.579895	155.340000
519.673523	155.000000
519.767212	155.180000
519.860901	155.620000
519.954590	155.440000
520.048279	154.920000
520.141907	154.840000
520.235596	155.640000
520.329224	155.800000
520.422974	155.660000
520.516602	155.720000
520.610291	155.400000
520.703918	154.760000
520.797607	154.180000
520.891296	154.400000
520.984985	154.640000
521.078613	155.440000
521.172302	154.840000
521.265930	155.720000
521.359680	156.220000
521.453308	156.440000
521.546997	156.040000
521.640625	156.340000
521.734314	155.740000
521.827942	155.300000
521.921692	155.380000
522.015320	155.320000
522.109009	155.200000
522.202698	155.220000
522.296326	154.720000
522.390015	154.880000
522.483704	155.160000
522.577393	155.080000
522.671021	154.900000
522.764709	154.840000
522.858337	155.080000
522.952026	154.940000
523.045654	155.840000
523.139404	156.400000
523.233032	156.660000
523.326721	156.000000
523.420349	156.020000
523.514038	155.180000
523.607666	155.280000
523.701355	155.020000
523.795044	155.020000
523.888733	155.240000
523.982361	155.680000
524.076050	155.160000
524.169678	155.900000
524.263367	155.700000
524.356995	155.280000
524.450684	155.200000
524.544373	154.760000
524.638062	154.300000
524.731750	154.840000
524.825378	155.080000
524.919067	154.380000
525.012695	154.620000
525.106384	154.160000
525.200012	153.900000
525.293701	153.520000
525.387329	154.260000
525.481018	154.480000
525.574646	155.060000
525.668396	154.940000
525.762024	155.420000
525.855713	155.260000
525.949341	154.740000
526.043030	154.820000
526.136658	154.800000
526.230347	154.280000
526.323975	154.040000
526.417664	153.920000
526.511292	153.800000
526.604980	154.060000
526.698608	154.240000
526.792297	154.460000
526.885925	155.340000
526.979614	155.400000
527.073303	155.260000
527.166931	155.500000
527.260620	155.460000
527.354309	155.360000
527.447998	155.300000
527.541626	155.200000
527.635315	154.920000
527.728943	155.480000
527.822632	155.700000
527.916260	155.620000
528.009949	155.820000
528.103577	155.660000
528.197266	154.860000
528.290894	154.900000
528.384583	154.640000
528.478210	154.600000
528.571899	155.060000
528.665527	155.580000
528.759216	155.480000
528.852844	156.200000
528.946533	156.100000
529.040161	155.920000
529.133850	155.520000
529.227478	155.060000
529.321167	155.020000
529.414856	155.560000
529.508484	155.880000
529.602173	155.540000
529.695801	155.600000
529.789490	155.220000
529.883057	154.680000
529.976746	154.860000
530.070374	155.660000
530.164062	155.880000
530.257690	156.360000
530.351379	156.800000
530.445007	156.220000
530.538696	155.220000
530.632324	155.480000
530.726013	154.920000
530.819641	154.600000
530.913330	154.760000
531.006958	155.260000
531.100647	155.060000
531.194275	155.200000
531.287964	155.180000
531.381592	154.900000
531.475220	155.160000
531.568848	154.900000
531.662537	154.780000
531.756226	155.040000
531.849854	155.140000
531.943542	155.160000
532.037170	154.660000
532.130859	154.960000
532.224487	154.680000
532.318176	154.480000
532.411804	154.600000
532.505432	155.220000
532.599060	155.100000
532.692749	155.240000
532.786377	156.000000
532.880066	155.520000
532.973694	154.940000
533.067383	154.640000
533.161011	154.220000
533.254639	153.960000
533.348267	153.900000
533.441956	154.320000
533.535583	154.300000
533.629272	154.540000
533.722900	153.660000
533.816589	153.920000
533.910156	154.400000
534.003845	154.340000
534.097534	154.640000
534.191162	155.860000
534.284851	156.040000
534.378479	155.420000
534.472107	155.760000
534.565735	155.400000
534.659424	155.220000
534.753052	155.180000
534.846741	154.940000
534.940369	155.340000
535.033997	155.520000
535.127625	155.200000
535.221313	155.960000
535.314941	156.260000
535.408630	155.380000
535.502197	155.360000
535.595886	155.320000
535.689514	154.540000
535.783203	154.980000
535.876831	155.760000
535.970459	155.460000
536.064087	155.240000
536.157776	155.300000
536.251404	155.240000
536.345093	154.840000
536.438721	155.120000
536.532349	155.400000
536.626038	154.960000
536.719666	155.120000
536.813293	155.220000
536.906921	155.100000
537.000610	155.640000
537.094238	155.620000
537.187866	155.180000
537.281494	154.900000
537.375183	155.260000
537.468811	154.580000
537.562439	154.840000
537.656067	154.980000
537.749756	155.160000
537.843384	155.720000
537.937012	156.040000
538.030640	155.900000
538.124329	155.840000
538.217896	156.340000
538.311584	155.980000
538.405212	156.040000
538.498901	156.500000
538.592468	157.240000
538.686157	156.600000
538.779785	155.660000
538.873413	155.260000
538.967102	154.800000
539.060730	153.720000
539.154358	153.980000
539.247986	154.500000
539.341675	154.660000
539.435242	154.620000
539.528931	154.900000
539.622559	154.380000
539.716187	155.040000
539.809814	154.900000
539.903503	154.820000
539.997070	154.620000
540.090759	154.860000
540.184387	154.460000
540.278015	154.880000
540.371643	155.480000
540.465332	155.620000
540.558899	155.600000
540.652588	155.400000
540.746216	155.020000
540.839844	154.880000
540.933472	154.840000
541.027100	154.920000
541.120728	154.840000
541.214417	154.900000
541.308044	155.000000
541.401672	154.900000
541.495300	154.820000
541.588928	154.980000
541.682617	154.840000
541.776184	154.480000
541.869873	154.760000
541.963440	154.740000
542.057129	154.560000
542.150757	154.740000
542.244385	154.380000
542.338013	154.060000
542.431641	153.840000
542.525269	153.700000
542.618958	154.420000
542.712524	155.020000
542.806213	155.100000
542.899780	155.560000
542.993469	155.300000
543.087036	154.520000
543.180725	154.080000
543.274292	154.220000
543.367981	154.380000
543.461548	155.080000
543.555237	155.000000
543.648926	155.580000
543.742493	156.320000
543.836182	156.200000
543.929749	155.800000
544.023437	156.000000
544.117004	156.160000
544.210693	155.740000
544.304260	155.500000
544.397949	155.520000
544.491516	155.660000
544.585205	155.260000
544.678772	154.720000
544.772461	155.420000
544.866028	155.180000
544.959717	155.140000
545.053284	154.840000
545.146973	155.220000
545.240540	154.800000
545.334229	155.440000
545.427795	155.580000
545.521423	155.700000
545.615051	155.520000
545.708679	156.040000
545.802307	155.880000
545.895935	155.920000
545.989624	156.600000
546.083191	156.720000
546.176880	156.360000
546.270447	155.720000
546.364136	156.160000
546.457703	155.760000
546.551331	155.880000
546.644958	155.780000
546.738586	156.500000
546.832214	155.800000
546.925842	155.680000
547.019409	156.080000
547.113098	155.700000
547.206665	155.340000
547.300354	155.500000
547.393921	155.900000
547.487549	155.820000
547.581177	155.680000
547.674805	155.560000
547.768433	155.040000
547.862061	155.000000
547.955627	154.200000
548.049316	155.000000
548.142883	155.420000
548.236572	155.960000
548.330139	155.980000
548.423767	156.200000
548.517456	155.920000
548.611023	156.080000
548.704651	155.460000
548.798279	155.100000
548.891907	155.680000
548.985474	155.260000
549.079163	155.460000
549.172729	155.580000
549.266357	155.460000
549.359985	155.160000
549.453613	154.980000
549.547180	154.240000
549.640869	154.740000
549.734436	154.720000
549.828064	155.180000
549.921631	155.380000
550.015320	155.140000
550.108887	155.600000
550.202515	155.500000
550.296143	154.600000
550.389771	154.940000
550.483337	155.360000
550.576965	154.720000
550.670593	155.260000
550.764221	155.680000
550.857849	155.300000
550.951477	154.820000
551.045105	154.520000
551.138672	154.560000
551.232300	154.020000
551.325928	154.500000
551.419556	155.380000
551.513123	155.700000
551.606750	155.100000
551.700378	155.820000
551.794006	155.740000
551.887573	155.220000
551.981201	155.720000
552.074768	155.820000
552.168457	155.200000
552.262024	155.980000
552.355652	155.940000
552.449219	156.200000
552.542847	156.240000
552.636475	156.200000
552.730103	154.900000
552.823669	154.780000
552.917297	154.060000
553.010864	154.200000
553.104553	154.660000
553.198181	154.480000
553.291748	155.120000
553.385376	155.140000
553.478943	154.940000
553.572571	155.140000
553.666199	155.880000
553.759827	155.340000
553.853394	155.000000
553.947021	155.080000
554.040588	154.640000
554.134216	154.880000
554.227783	155.600000
554.321411	156.220000
554.415039	155.760000
554.508667	155.820000
554.602234	155.760000
554.695862	155.060000
554.789429	154.900000
554.883057	155.180000
554.976624	155.220000
555.070251	154.920000
555.163818	154.860000
555.257507	155.040000
555.351074	155.300000
555.444702	156.340000
555.538330	156.040000
555.631897	156.560000
555.725525	155.820000
555.819092	155.540000
555.912720	154.140000
556.006287	154.820000
556.099915	154.420000
556.193481	154.760000
556.287109	155.200000
556.380676	155.380000
556.474304	155.100000
556.567871	155.420000
556.661499	155.080000
556.755066	154.760000
556.848694	154.920000
556.942261	154.760000
557.035889	154.740000
557.129517	155.060000
557.223145	155.760000
557.316711	155.920000
557.410339	155.920000
557.503906	155.660000
557.597473	155.960000
557.691040	155.420000
557.784668	155.160000
557.878296	155.160000
557.971863	155.560000
558.065491	155.340000
558.159058	155.020000
558.252686	155.960000
558.346252	156.540000
558.439880	156.220000
558.533447	156.080000
558.627075	155.780000
558.720642	154.860000
558.814270	154.240000
558.907837	154.160000
559.001465	153.680000
559.095032	154.620000
559.188660	154.960000
559.282227	154.620000
559.375854	154.860000
559.469360	154.980000
559.562988	155.200000
559.656555	155.260000
559.750183	155.680000
559.843750	155.840000
559.937378	156.040000
560.030945	155.600000
560.124573	0.000000
560.218140	0.000000
560.311707	0.000000
560.405334	0.000000
560.498901	0.000000
560.592529	0.000000
560.686096	0.000000
560.779724	0.000000
560.873291	0.000000
560.966858	0.000000
561.060425	0.000000
561.154053	0.000000
561.247620	0.000000
561.341248	0.000000
561.434814	0.000000
561.528381	0.000000
561.621948	0.000000
561.715576	0.000000
561.809143	0.000000
561.902771	0.000000
561.996277	0.000000
562.089905	0.000000
562.183472	0.000000
562.277100	0.000000
