Model Number: SPM-002-B   
Serial Number: 70087108
Firmware Version: 004.15.4
Exposure Time: 100000.000000us
Data Taken on: 15-01-2021 17:50:32.334
Wavelength	Amplitude
221.570786	0.000000
221.663406	0.000000
221.756027	0.000000
221.848648	0.000000
221.941269	0.000000
222.033905	0.000000
222.126526	0.000000
222.219162	0.000000
222.311798	0.000000
222.404419	0.000000
222.497055	0.000000
222.589676	0.000000
222.682312	0.000000
222.774933	0.000000
222.867569	0.000000
222.960205	0.000000
223.052841	0.000000
223.145462	0.000000
223.238098	0.000000
223.330734	0.000000
223.423386	0.000000
223.516022	0.000000
223.608658	0.000000
223.701309	0.000000
223.793945	0.000000
223.886581	0.000000
223.979218	0.000000
224.071869	0.000000
224.164505	0.000000
224.257156	0.000000
224.349792	0.000000
224.442444	0.000000
224.535095	0.000000
224.627747	0.000000
224.720398	0.000000
224.813034	0.000000
224.905685	0.000000
224.998337	154.000000
225.090988	153.800000
225.183640	154.220000
225.276291	154.260000
225.368942	154.600000
225.461594	155.220000
225.554245	155.220000
225.646912	154.960000
225.739578	155.540000
225.832230	155.800000
225.924896	154.760000
226.017548	155.440000
226.110199	155.920000
226.202866	155.400000
226.295532	155.420000
226.388184	155.680000
226.480850	154.840000
226.573517	154.460000
226.666168	154.500000
226.758835	154.380000
226.851501	154.860000
226.944183	154.800000
227.036850	153.960000
227.129517	153.840000
227.222183	154.120000
227.314850	154.060000
227.407516	154.700000
227.500198	155.840000
227.592865	155.560000
227.685532	155.040000
227.778214	154.740000
227.870880	154.880000
227.963562	155.160000
228.056229	155.620000
228.148926	155.640000
228.241592	156.600000
228.334274	156.040000
228.426956	155.440000
228.519638	155.600000
228.612305	155.120000
228.704987	154.560000
228.797668	154.960000
228.890350	154.620000
228.983032	153.600000
229.075714	154.580000
229.168396	154.300000
229.261108	153.720000
229.353790	154.040000
229.446472	154.940000
229.539169	154.900000
229.631851	154.220000
229.724533	154.440000
229.817230	154.480000
229.909912	155.320000
230.002609	155.040000
230.095306	155.460000
230.187988	155.540000
230.280685	155.380000
230.373383	153.880000
230.466095	153.940000
230.558792	154.380000
230.651474	154.240000
230.744171	154.240000
230.836868	154.380000
230.929581	154.500000
231.022278	154.640000
231.114975	154.640000
231.207672	154.540000
231.300369	155.300000
231.393082	155.240000
231.485779	154.840000
231.578506	155.080000
231.671204	155.160000
231.763916	154.700000
231.856613	154.540000
231.949326	154.780000
232.042023	154.380000
232.134735	154.660000
232.227448	154.280000
232.320160	154.860000
232.412872	154.780000
232.505585	155.840000
232.598297	155.800000
232.691010	155.940000
232.783722	155.220000
232.876450	155.960000
232.969162	155.280000
233.061874	154.640000
233.154587	154.440000
233.247314	154.820000
233.340027	153.900000
233.432739	154.200000
233.525467	154.580000
233.618179	154.920000
233.710907	154.580000
233.803635	155.060000
233.896347	154.680000
233.989090	155.440000
234.081818	155.640000
234.174545	156.100000
234.267258	155.540000
234.359985	155.820000
234.452713	155.120000
234.545441	154.900000
234.638168	154.480000
234.730896	154.980000
234.823639	154.820000
234.916367	155.120000
235.009094	155.180000
235.101822	155.160000
235.194580	155.000000
235.287308	154.980000
235.380051	154.720000
235.472778	155.180000
235.565521	155.260000
235.658249	155.000000
235.750992	155.200000
235.843719	154.860000
235.936462	154.560000
236.029205	154.200000
236.121948	153.620000
236.214691	153.980000
236.307449	155.040000
236.400192	154.720000
236.492935	155.080000
236.585678	155.740000
236.678421	155.280000
236.771164	154.580000
236.863907	155.520000
236.956665	155.380000
237.049408	156.880000
237.142151	156.580000
237.234909	157.400000
237.327652	156.920000
237.420410	156.860000
237.513153	155.580000
237.605927	155.560000
237.698669	154.800000
237.791428	153.960000
237.884186	154.560000
237.976944	154.440000
238.069702	154.640000
238.162445	154.640000
238.255203	155.380000
238.347961	155.180000
238.440720	155.020000
238.533478	154.980000
238.626266	154.500000
238.719025	154.540000
238.811783	154.200000
238.904541	154.020000
238.997314	153.720000
239.090073	153.440000
239.182831	153.700000
239.275604	154.820000
239.368362	154.900000
239.461136	155.020000
239.553909	155.560000
239.646667	155.080000
239.739441	154.280000
239.832214	154.620000
239.925003	155.060000
240.017761	155.300000
240.110535	155.980000
240.203308	155.600000
240.296082	155.500000
240.388855	155.320000
240.481628	155.500000
240.574417	155.440000
240.667191	155.660000
240.759964	155.580000
240.852737	155.580000
240.945526	155.060000
241.038315	154.620000
241.131088	154.580000
241.223877	154.800000
241.316650	154.380000
241.409439	154.980000
241.502228	154.780000
241.595001	155.500000
241.687790	155.180000
241.780579	155.380000
241.873367	155.480000
241.966141	155.720000
242.058929	154.720000
242.151718	155.180000
242.244507	155.740000
242.337311	154.760000
242.430099	155.260000
242.522903	155.800000
242.615692	154.980000
242.708481	154.620000
242.801270	155.280000
242.894073	154.780000
242.986862	154.680000
243.079651	155.580000
243.172455	155.460000
243.265244	155.480000
243.358063	154.800000
243.450867	155.140000
243.543655	154.980000
243.636459	155.040000
243.729263	155.140000
243.822067	155.980000
243.914856	155.940000
244.007660	155.660000
244.100464	155.540000
244.193268	155.200000
244.286072	154.840000
244.378876	154.300000
244.471680	154.120000
244.564499	154.620000
244.657318	155.380000
244.750122	155.760000
244.842926	155.520000
244.935745	156.180000
245.028549	155.540000
245.121368	154.960000
245.214172	154.940000
245.306992	155.340000
245.399796	154.540000
245.492615	154.880000
245.585434	154.620000
245.678253	154.340000
245.771072	154.160000
245.863892	154.900000
245.956711	154.860000
246.049530	155.020000
246.142349	154.880000
246.235168	155.080000
246.327988	155.280000
246.420807	155.040000
246.513626	154.880000
246.606445	154.820000
246.699280	154.720000
246.792099	154.380000
246.884918	154.040000
246.977753	153.540000
247.070587	153.700000
247.163422	153.480000
247.256241	153.300000
247.349075	153.480000
247.441895	154.240000
247.534729	154.180000
247.627563	154.380000
247.720383	155.040000
247.813217	155.100000
247.906052	154.920000
247.998886	154.920000
248.091736	154.980000
248.184570	154.640000
248.277405	154.900000
248.370239	155.720000
248.463074	156.620000
248.555908	156.820000
248.648743	156.560000
248.741592	156.920000
248.834427	155.820000
248.927261	154.540000
249.020111	155.120000
249.112946	155.560000
249.205795	154.640000
249.298630	155.440000
249.391495	155.960000
249.484344	155.160000
249.577179	155.280000
249.670029	155.980000
249.762878	155.940000
249.855728	156.020000
249.948563	156.040000
250.041412	155.040000
250.134262	154.820000
250.227112	154.800000
250.319962	154.820000
250.412827	154.880000
250.505692	154.800000
250.598541	155.060000
250.691391	154.540000
250.784241	154.380000
250.877106	154.420000
250.969955	154.340000
251.062805	154.560000
251.155670	155.440000
251.248520	154.940000
251.341385	155.340000
251.434235	155.300000
251.527100	155.140000
251.619965	154.280000
251.712814	155.440000
251.805695	155.020000
251.898560	155.500000
251.991425	155.560000
252.084290	155.940000
252.177155	155.120000
252.270020	154.880000
252.362885	154.880000
252.455750	154.840000
252.548615	154.520000
252.641479	154.520000
252.734360	154.600000
252.827240	154.580000
252.920105	154.720000
253.012970	154.540000
253.105850	154.460000
253.198715	154.180000
253.291595	154.300000
253.384460	153.540000
253.477341	153.540000
253.570221	153.940000
253.663086	154.120000
253.755966	154.760000
253.848846	155.460000
253.941727	156.060000
254.034592	155.560000
254.127472	155.040000
254.220367	154.540000
254.313248	154.260000
254.406128	153.500000
254.499008	154.160000
254.591904	155.040000
254.684784	155.520000
254.777664	155.360000
254.870544	155.480000
254.963440	155.160000
255.056335	155.260000
255.149216	154.680000
255.242111	155.480000
255.334991	155.820000
255.427887	155.680000
255.520767	155.580000
255.613663	155.720000
255.706558	154.800000
255.799438	154.580000
255.892334	154.580000
255.985229	154.440000
256.078125	154.060000
256.171021	154.280000
256.263916	154.920000
256.356812	155.200000
256.449707	155.320000
256.542603	155.120000
256.635498	155.580000
256.728394	155.220000
256.821289	154.960000
256.914215	155.380000
257.007080	155.760000
257.100006	155.680000
257.192932	156.000000
257.285828	156.200000
257.378723	155.320000
257.471619	155.520000
257.564545	155.020000
257.657440	154.540000
257.750336	155.220000
257.843262	155.320000
257.936157	156.200000
258.029053	156.360000
258.121979	156.380000
258.214874	155.720000
258.307800	155.620000
258.400696	154.560000
258.493622	154.640000
258.586517	154.360000
258.679443	154.540000
258.772339	154.180000
258.865265	154.180000
258.958160	153.740000
259.051086	154.700000
259.144012	154.480000
259.236938	155.600000
259.329834	155.620000
259.422791	155.540000
259.515717	154.580000
259.608612	154.260000
259.701538	154.120000
259.794464	153.900000
259.887390	154.300000
259.980316	154.600000
260.073212	154.560000
260.166138	153.480000
260.259064	154.060000
260.351990	154.440000
260.444916	154.280000
260.537842	154.900000
260.630768	155.780000
260.723694	155.460000
260.816620	155.260000
260.909546	155.280000
261.002472	154.800000
261.095398	154.380000
261.188354	154.260000
261.281281	153.800000
261.374207	154.060000
261.467133	154.820000
261.560089	154.760000
261.653015	154.620000
261.745972	155.360000
261.838867	155.560000
261.931824	155.620000
262.024780	155.440000
262.117706	155.820000
262.210663	155.860000
262.303589	155.520000
262.396515	155.020000
262.489471	156.240000
262.582397	156.160000
262.675354	155.540000
262.768280	155.680000
262.861237	155.820000
262.954163	155.340000
263.047119	155.240000
263.140045	155.100000
263.233002	155.200000
263.325958	155.400000
263.418884	154.720000
263.511841	154.820000
263.604797	155.000000
263.697723	154.920000
263.790680	154.380000
263.883636	155.240000
263.976593	155.260000
264.069550	155.480000
264.162476	155.040000
264.255463	155.280000
264.348419	155.040000
264.441376	155.320000
264.534332	154.740000
264.627289	155.160000
264.720245	155.640000
264.813202	155.040000
264.906158	154.840000
264.999115	155.440000
265.092072	155.080000
265.185028	155.340000
265.277985	155.760000
265.370941	155.540000
265.463898	155.280000
265.556854	155.200000
265.649811	153.920000
265.742798	153.800000
265.835754	153.900000
265.928711	154.580000
266.021667	154.920000
266.114655	155.580000
266.207611	156.300000
266.300568	155.880000
266.393585	155.160000
266.486511	155.200000
266.579498	154.360000
266.672485	153.880000
266.765442	153.680000
266.858429	154.160000
266.951385	153.880000
267.044342	154.160000
267.137329	153.760000
267.230316	154.560000
267.323273	154.060000
267.416260	154.560000
267.509216	154.920000
267.602203	155.320000
267.695160	155.500000
267.788147	155.660000
267.881134	155.260000
267.974091	155.300000
268.067078	155.200000
268.160065	154.980000
268.253052	155.080000
268.346008	155.240000
268.438995	154.740000
268.531982	154.640000
268.624969	154.300000
268.717987	154.360000
268.810944	154.020000
268.903961	154.620000
268.996948	154.200000
269.089905	154.860000
269.182892	154.860000
269.275879	155.400000
269.368866	154.480000
269.461853	155.140000
269.554871	154.880000
269.647858	154.720000
269.740845	154.920000
269.833832	155.780000
269.926819	155.460000
270.019806	155.440000
270.112793	155.140000
270.205811	155.020000
270.298798	154.860000
270.391785	155.100000
270.484772	154.880000
270.577789	155.380000
270.670776	154.680000
270.763763	154.440000
270.856750	154.620000
270.949768	154.340000
271.042786	154.260000
271.135773	154.660000
271.228790	155.220000
271.321808	154.640000
271.414795	154.300000
271.507782	153.780000
271.600800	153.340000
271.693817	153.400000
271.786804	153.920000
271.879822	154.360000
271.972809	154.440000
272.065826	155.160000
272.158844	154.300000
272.251831	154.920000
272.344849	154.800000
272.437866	154.880000
272.530853	154.880000
272.623871	155.440000
272.716888	153.800000
272.809906	154.600000
272.902893	154.620000
272.995911	154.080000
273.088928	153.820000
273.181946	154.380000
273.274963	153.580000
273.367981	153.480000
273.460999	153.840000
273.554047	154.460000
273.647003	155.360000
273.740051	155.100000
273.833069	155.400000
273.926086	155.540000
274.019135	155.260000
274.112152	154.720000
274.205170	155.120000
274.298187	155.660000
274.391205	155.040000
274.484222	154.840000
274.577240	154.620000
274.670258	154.440000
274.763306	154.160000
274.856323	154.840000
274.949341	154.820000
275.042358	155.360000
275.135406	155.280000
275.228424	154.880000
275.321442	154.600000
275.414490	154.660000
275.507507	154.900000
275.600525	155.800000
275.693573	155.600000
275.786591	155.320000
275.879669	155.500000
275.972656	154.920000
276.065735	154.420000
276.158752	155.180000
276.251801	155.900000
276.344818	156.060000
276.437866	156.480000
276.530884	156.160000
276.623932	155.280000
276.716980	155.140000
276.809998	154.940000
276.903046	154.480000
276.996094	155.740000
277.089111	156.720000
277.182159	156.960000
277.275208	156.560000
277.368256	156.740000
277.461304	155.880000
277.554321	155.060000
277.647369	154.840000
277.740417	155.060000
277.833466	154.840000
277.926514	154.620000
278.019562	155.180000
278.112610	154.740000
278.205688	154.720000
278.298706	155.040000
278.391785	154.900000
278.484833	154.240000
278.577881	154.100000
278.670929	154.440000
278.763977	154.320000
278.857025	154.820000
278.950073	155.000000
279.043121	155.040000
279.136169	154.760000
279.229248	154.360000
279.322296	154.420000
279.415344	154.520000
279.508392	154.280000
279.601440	154.240000
279.694519	154.280000
279.787567	153.940000
279.880615	153.700000
279.973694	153.940000
280.066742	153.880000
280.159790	153.960000
280.252869	153.620000
280.345917	154.180000
280.438995	154.060000
280.532074	154.100000
280.625122	154.520000
280.718201	155.520000
280.811279	155.260000
280.904327	155.720000
280.997406	155.860000
281.090454	155.800000
281.183533	154.880000
281.276581	154.580000
281.369659	154.180000
281.462738	154.280000
281.555786	154.240000
281.648865	154.660000
281.741943	154.900000
281.835022	155.460000
281.928070	155.240000
282.021149	154.840000
282.114227	154.480000
282.207306	154.400000
282.300385	154.440000
282.393433	154.740000
282.486511	155.020000
282.579590	155.560000
282.672668	155.840000
282.765747	155.060000
282.858856	154.480000
282.951904	154.580000
283.045013	154.820000
283.138062	155.100000
283.231171	155.640000
283.324249	156.420000
283.417328	156.720000
283.510406	156.000000
283.603485	155.720000
283.696564	155.480000
283.789642	155.140000
283.882751	154.540000
283.975830	155.420000
284.068909	155.020000
284.161987	155.400000
284.255066	154.820000
284.348175	155.060000
284.441254	154.660000
284.534332	155.160000
284.627441	154.760000
284.720520	154.660000
284.813599	154.680000
284.906708	154.700000
284.999786	153.840000
285.092896	153.800000
285.185974	155.120000
285.279053	154.420000
285.372192	154.340000
285.465240	155.400000
285.558380	155.040000
285.651459	154.340000
285.744568	155.380000
285.837677	155.120000
285.930756	154.920000
286.023865	155.280000
286.116943	154.840000
286.210052	154.860000
286.303162	154.840000
286.396240	154.220000
286.489349	154.000000
286.582458	154.300000
286.675568	154.160000
286.768646	154.340000
286.861755	155.040000
286.954865	156.100000
287.047974	155.880000
287.141083	155.360000
287.234161	155.060000
287.327271	154.760000
287.420380	154.800000
287.513519	154.580000
287.606598	154.880000
287.699738	155.220000
287.792816	155.300000
287.885956	154.740000
287.979034	155.140000
288.072174	155.100000
288.165283	154.900000
288.258392	155.060000
288.351501	154.520000
288.444611	154.780000
288.537720	155.140000
288.630859	155.000000
288.723969	155.060000
288.817078	155.700000
288.910187	155.600000
289.003296	154.980000
289.096436	154.780000
289.189545	154.460000
289.282654	153.840000
289.375763	154.000000
289.468903	154.680000
289.562012	155.100000
289.655121	154.980000
289.748260	155.240000
289.841400	155.460000
289.934509	154.800000
290.027649	154.940000
290.120728	154.660000
290.213898	154.820000
290.306976	154.020000
290.400146	154.320000
290.493256	153.640000
290.586395	154.280000
290.679535	154.540000
290.772644	154.780000
290.865784	154.160000
290.958893	154.700000
291.052032	154.360000
291.145172	154.420000
291.238281	154.020000
291.331421	154.280000
291.424561	154.480000
291.517670	154.480000
291.610809	154.040000
291.703949	154.120000
291.797089	154.660000
291.890228	154.080000
291.983337	153.940000
292.076477	153.940000
292.169617	154.420000
292.262756	154.120000
292.355927	154.300000
292.449036	154.340000
292.542206	154.580000
292.635315	154.760000
292.728485	155.120000
292.821625	154.840000
292.914764	156.100000
293.007904	156.020000
293.101044	155.940000
293.194183	155.720000
293.287323	155.700000
293.380463	154.740000
293.473602	154.460000
293.566742	154.440000
293.659882	154.580000
293.753021	155.340000
293.846191	155.080000
293.939331	154.740000
294.032471	154.480000
294.125610	154.240000
294.218781	154.340000
294.311920	154.740000
294.405060	155.260000
294.498230	155.540000
294.591370	155.740000
294.684540	154.900000
294.777679	154.560000
294.870850	154.880000
294.963959	154.560000
295.057159	154.560000
295.150299	155.080000
295.243469	155.140000
295.336609	154.500000
295.429779	154.780000
295.522919	154.760000
295.616089	154.560000
295.709229	155.460000
295.802399	155.660000
295.895569	155.320000
295.988708	155.120000
296.081879	155.420000
296.175018	154.420000
296.268188	154.500000
296.361359	154.920000
296.454529	155.180000
296.547668	154.900000
296.640839	155.000000
296.734009	154.860000
296.827179	155.040000
296.920319	155.040000
297.013519	154.940000
297.106659	155.580000
297.199860	155.440000
297.292999	155.260000
297.386200	154.840000
297.479309	154.640000
297.572510	154.100000
297.665680	153.980000
297.758850	153.900000
297.852020	154.160000
297.945190	154.240000
298.038361	153.800000
298.131531	155.060000
298.224701	154.660000
298.317871	153.980000
298.411072	153.360000
298.504242	153.240000
298.597412	152.260000
298.690582	152.500000
298.783752	153.180000
298.876923	154.200000
298.970093	154.500000
299.063293	155.080000
299.156464	155.580000
299.249634	155.740000
299.342834	155.540000
299.436005	155.760000
299.529205	155.240000
299.622345	155.100000
299.715576	154.380000
299.808716	154.220000
299.901917	154.160000
299.995117	154.400000
300.088287	154.480000
300.181488	154.340000
300.274658	154.120000
300.367828	154.200000
300.461029	154.120000
300.554199	154.220000
300.647400	154.800000
300.740601	155.560000
300.833771	155.520000
300.926971	155.560000
301.020142	154.900000
301.113342	154.460000
301.206512	154.320000
301.299713	154.860000
301.392914	154.940000
301.486084	155.340000
301.579285	155.660000
301.672516	155.920000
301.765686	155.320000
301.858887	154.860000
301.952057	154.800000
302.045288	154.840000
302.138458	154.520000
302.231659	154.400000
302.324860	154.460000
302.418060	154.180000
302.511261	153.760000
302.604462	154.060000
302.697662	153.940000
302.790863	153.860000
302.884064	153.560000
302.977264	153.860000
303.070465	153.780000
303.163666	154.720000
303.256866	155.440000
303.350067	155.560000
303.443268	155.560000
303.536469	155.940000
303.629669	155.200000
303.722870	154.880000
303.816071	155.100000
303.909271	155.200000
304.002472	154.060000
304.095673	153.740000
304.188934	153.040000
304.282104	153.800000
304.375336	153.800000
304.468506	154.100000
304.561768	154.420000
304.654968	155.260000
304.748169	154.520000
304.841370	154.200000
304.934601	154.540000
305.027802	154.060000
305.121002	153.600000
305.214233	153.660000
305.307434	153.600000
305.400665	154.100000
305.493866	154.300000
305.587097	154.560000
305.680298	154.260000
305.773499	155.020000
305.866730	154.560000
305.959930	155.180000
306.053162	155.400000
306.146393	155.240000
306.239594	154.200000
306.332825	153.880000
306.426025	153.780000
306.519287	153.280000
306.612488	153.820000
306.705719	154.340000
306.798920	154.440000
306.892181	154.200000
306.985352	153.880000
307.078613	153.260000
307.171844	153.700000
307.265045	153.340000
307.358276	153.000000
307.451508	153.640000
307.544739	154.380000
307.637970	153.680000
307.731201	153.880000
307.824402	154.500000
307.917633	154.620000
308.010864	154.900000
308.104095	155.280000
308.197327	155.380000
308.290558	155.400000
308.383789	155.040000
308.477020	154.440000
308.570251	154.180000
308.663483	154.020000
308.756714	153.520000
308.849976	153.840000
308.943176	154.280000
309.036438	154.100000
309.129639	154.060000
309.222900	154.300000
309.316101	153.860000
309.409393	153.340000
309.502625	153.500000
309.595856	153.500000
309.689087	153.540000
309.782318	153.760000
309.875580	154.100000
309.968811	154.020000
310.062042	153.880000
310.155273	153.820000
310.248535	154.260000
310.341766	154.020000
310.434998	154.100000
310.528259	154.220000
310.621490	154.420000
310.714722	153.540000
310.807983	153.600000
310.901215	153.620000
310.994476	153.460000
311.087708	153.120000
311.181000	153.600000
311.274200	153.260000
311.367462	153.480000
311.460693	153.320000
311.553986	154.060000
311.647186	154.520000
311.740479	155.540000
311.833710	155.120000
311.926971	155.340000
312.020203	154.320000
312.113464	153.840000
312.206726	152.840000
312.299957	153.340000
312.393219	153.900000
312.486481	154.340000
312.579712	153.980000
312.672974	154.160000
312.766235	153.920000
312.859497	153.600000
312.952759	153.400000
313.045990	154.500000
313.139252	153.960000
313.232513	153.900000
313.325775	153.840000
313.419037	153.720000
313.512299	152.480000
313.605530	153.500000
313.698822	153.840000
313.792053	154.080000
313.885345	153.820000
313.978577	154.340000
314.071869	153.480000
314.165131	153.360000
314.258392	153.280000
314.351654	153.760000
314.444916	153.400000
314.538177	154.400000
314.631439	154.640000
314.724701	154.420000
314.817993	154.160000
314.911255	154.420000
315.004517	153.780000
315.097778	153.320000
315.191040	153.800000
315.284302	154.400000
315.377594	154.140000
315.470856	154.060000
315.564117	153.720000
315.657379	153.360000
315.750671	152.740000
315.843933	153.200000
315.937195	152.980000
316.030518	153.040000
316.123749	152.880000
316.217041	153.780000
316.310303	153.600000
316.403595	154.220000
316.496857	154.480000
316.590149	154.960000
316.683411	154.260000
316.776703	153.940000
316.869965	153.540000
316.963257	153.480000
317.056519	152.400000
317.149811	152.140000
317.243073	152.340000
317.336365	152.480000
317.429626	152.780000
317.522919	154.080000
317.616180	154.520000
317.709473	154.260000
317.802765	154.160000
317.896027	153.940000
317.989319	154.140000
318.082611	153.680000
318.175873	153.820000
318.269165	154.020000
318.362488	153.980000
318.455750	153.000000
318.549042	153.620000
318.642303	154.180000
318.735626	153.920000
318.828888	154.280000
318.922211	154.340000
319.015472	154.880000
319.108765	154.200000
319.202057	153.780000
319.295349	153.700000
319.388641	153.980000
319.481934	153.380000
319.575226	153.740000
319.668518	154.560000
319.761810	154.740000
319.855103	154.360000
319.948395	154.420000
320.041687	154.520000
320.134979	153.980000
320.228271	153.480000
320.321564	153.720000
320.414856	153.680000
320.508148	153.260000
320.601440	153.440000
320.694763	153.520000
320.788025	154.200000
320.881348	153.940000
320.974640	154.120000
321.067963	153.740000
321.161224	153.780000
321.254547	152.700000
321.347839	153.560000
321.441162	153.400000
321.534454	153.900000
321.627747	154.000000
321.721069	155.100000
321.814362	154.940000
321.907654	155.320000
322.000946	155.140000
322.094269	155.720000
322.187561	155.080000
322.280884	155.260000
322.374176	155.020000
322.467468	155.440000
322.560791	155.340000
322.654083	155.620000
322.747406	155.340000
322.840698	155.400000
322.934021	155.400000
323.027344	155.500000
323.120636	155.520000
323.213959	155.360000
323.307251	155.000000
323.400574	154.580000
323.493866	153.660000
323.587219	153.600000
323.680511	154.020000
323.773834	154.440000
323.867157	154.580000
323.960449	155.100000
324.053772	154.500000
324.147095	154.340000
324.240387	154.680000
324.333710	155.000000
324.427032	154.940000
324.520355	155.420000
324.613647	154.680000
324.706970	154.180000
324.800293	153.840000
324.893616	153.780000
324.986938	154.060000
325.080231	154.160000
325.173553	154.340000
325.266876	154.860000
325.360199	155.140000
325.453522	154.400000
325.546875	154.400000
325.640167	154.620000
325.733521	154.420000
325.826813	154.740000
325.920166	154.940000
326.013489	154.940000
326.106812	154.040000
326.200134	153.820000
326.293457	153.040000
326.386780	153.200000
326.480103	153.400000
326.573425	153.600000
326.666748	153.580000
326.760071	153.940000
326.853424	153.900000
326.946747	153.980000
327.040070	155.120000
327.133392	154.760000
327.226715	153.880000
327.320068	153.800000
327.413391	154.100000
327.506714	153.240000
327.600037	153.400000
327.693390	153.920000
327.786713	153.860000
327.880066	153.680000
327.973358	154.040000
328.066742	154.940000
328.160034	155.380000
328.253418	155.500000
328.346710	155.040000
328.440063	154.480000
328.533417	153.600000
328.626740	153.760000
328.720093	153.780000
328.813416	153.780000
328.906769	154.080000
329.000092	154.380000
329.093445	154.200000
329.186768	154.100000
329.280121	154.580000
329.373444	154.780000
329.466797	154.900000
329.560120	154.860000
329.653473	154.800000
329.746796	154.380000
329.840149	154.140000
329.933502	153.700000
330.026825	153.540000
330.120178	153.660000
330.213562	153.500000
330.306854	153.600000
330.400238	153.840000
330.493561	153.740000
330.586945	154.540000
330.680237	155.380000
330.773621	155.180000
330.866974	155.140000
330.960327	155.620000
331.053680	154.960000
331.147003	154.720000
331.240356	155.280000
331.333710	155.160000
331.427063	154.720000
331.520416	154.620000
331.613770	154.200000
331.707123	154.140000
331.800476	154.380000
331.893829	155.140000
331.987152	155.300000
332.080505	155.540000
332.173859	155.140000
332.267212	154.760000
332.360565	154.200000
332.453918	154.000000
332.547333	153.900000
332.640656	154.240000
332.734039	154.820000
332.827362	154.680000
332.920746	155.120000
333.014069	155.340000
333.107452	155.700000
333.200806	155.580000
333.294159	155.840000
333.387543	155.080000
333.480896	154.740000
333.574249	154.060000
333.667603	153.780000
333.760956	153.880000
333.854340	154.280000
333.947693	154.400000
334.041046	154.840000
334.134430	155.220000
334.227783	154.760000
334.321136	154.540000
334.414520	154.000000
334.507874	154.020000
334.601227	153.800000
334.694611	153.840000
334.787964	154.020000
334.881348	154.720000
334.974701	154.240000
335.068085	153.960000
335.161438	154.340000
335.254822	154.460000
335.348175	154.400000
335.441559	154.460000
335.534943	155.040000
335.628296	154.460000
335.721680	154.420000
335.815033	154.560000
335.908417	154.780000
336.001770	154.660000
336.095154	154.880000
336.188538	154.420000
336.281891	153.980000
336.375275	153.440000
336.468658	153.180000
336.562012	153.300000
336.655396	153.720000
336.748779	154.180000
336.842133	154.400000
336.935516	154.680000
337.028900	154.340000
337.122284	154.220000
337.215637	154.220000
337.309021	154.280000
337.402435	153.740000
337.495789	154.000000
337.589203	153.800000
337.682526	153.460000
337.775940	153.660000
337.869324	153.980000
337.962708	153.580000
338.056091	154.140000
338.149475	153.920000
338.242859	153.880000
338.336243	153.620000
338.429626	154.080000
338.523010	153.800000
338.616394	153.660000
338.709778	153.840000
338.803162	154.060000
338.896545	153.920000
338.989929	153.540000
339.083313	153.820000
339.176697	153.580000
339.270081	153.380000
339.363464	153.720000
339.456848	154.280000
339.550232	153.960000
339.643616	153.820000
339.737030	154.000000
339.830383	153.580000
339.923828	153.700000
340.017181	154.060000
340.110596	154.360000
340.203949	154.220000
340.297363	154.060000
340.390778	153.560000
340.484161	153.360000
340.577545	153.040000
340.670959	153.120000
340.764343	153.240000
340.857727	153.240000
340.951111	152.820000
341.044525	153.100000
341.137909	153.020000
341.231293	152.840000
341.324707	152.900000
341.418091	154.040000
341.511505	154.100000
341.604889	154.560000
341.698303	154.840000
341.791687	154.840000
341.885071	154.400000
341.978485	153.820000
342.071899	153.660000
342.165283	153.760000
342.258698	154.080000
342.352081	154.480000
342.445496	155.480000
342.538879	155.340000
342.632324	154.920000
342.725708	154.740000
342.819122	154.140000
342.912506	153.400000
343.005920	153.600000
343.099335	154.660000
343.192719	154.520000
343.286133	154.580000
343.379547	154.900000
343.472931	155.060000
343.566345	154.440000
343.659760	154.800000
343.753143	154.620000
343.846558	154.620000
343.939972	154.360000
344.033386	154.560000
344.126770	154.420000
344.220184	154.820000
344.313599	155.020000
344.407043	154.880000
344.500427	154.440000
344.593872	154.860000
344.687225	154.500000
344.780670	153.760000
344.874054	153.700000
344.967499	154.260000
345.060913	154.020000
345.154327	153.980000
345.247742	154.160000
345.341156	153.760000
345.434570	153.220000
345.527985	153.380000
345.621399	153.500000
345.714813	153.480000
345.808228	154.060000
345.901642	154.100000
345.995056	153.420000
346.088470	153.600000
346.181885	153.860000
346.275299	153.600000
346.368713	153.580000
346.462128	153.600000
346.555573	153.600000
346.648987	154.000000
346.742401	153.980000
346.835815	154.700000
346.929260	154.660000
347.022644	154.660000
347.116119	154.240000
347.209503	154.760000
347.302948	154.880000
347.396362	155.280000
347.489807	155.700000
347.583221	156.080000
347.676636	155.440000
347.770050	154.200000
347.863495	153.860000
347.956909	153.140000
348.050323	152.960000
348.143768	153.400000
348.237183	153.720000
348.330597	154.120000
348.424042	154.460000
348.517456	154.700000
348.610901	154.740000
348.704315	154.580000
348.797760	154.080000
348.891174	153.600000
348.984619	152.800000
349.078033	153.300000
349.171448	154.300000
349.264923	154.100000
349.358337	154.200000
349.451782	154.740000
349.545197	153.640000
349.638641	152.860000
349.732086	152.480000
349.825500	153.180000
349.918945	152.700000
350.012390	153.280000
350.105804	153.600000
350.199249	154.400000
350.292664	154.580000
350.386108	154.840000
350.479553	155.180000
350.572968	155.120000
350.666412	155.020000
350.759857	154.600000
350.853302	155.320000
350.946716	154.540000
351.040161	154.680000
351.133606	154.800000
351.227081	154.660000
351.320465	154.560000
351.413940	155.180000
351.507355	155.020000
351.600830	155.120000
351.694244	154.960000
351.787720	154.480000
351.881104	154.300000
351.974579	153.920000
352.067993	154.800000
352.161469	154.840000
352.254883	154.540000
352.348358	154.280000
352.441803	154.660000
352.535248	153.880000
352.628693	154.220000
352.722137	154.000000
352.815582	154.440000
352.909027	154.580000
353.002472	154.300000
353.095917	154.040000
353.189362	154.740000
353.282806	154.260000
353.376251	153.940000
353.469696	153.540000
353.563141	154.080000
353.656586	153.600000
353.750061	153.240000
353.843475	153.240000
353.936981	154.300000
354.030396	153.480000
354.123871	153.760000
354.217285	154.940000
354.310760	155.180000
354.404175	155.120000
354.497681	155.180000
354.591095	154.980000
354.684570	154.060000
354.777985	154.000000
354.871490	153.340000
354.964935	153.920000
355.058380	154.260000
355.151855	154.120000
355.245300	154.260000
355.338745	154.880000
355.432220	154.940000
355.525665	154.280000
355.619110	154.960000
355.712585	154.680000
355.806030	154.160000
355.899475	153.520000
355.992950	154.180000
356.086426	154.160000
356.179871	154.360000
356.273346	154.460000
356.366791	154.780000
356.460266	155.040000
356.553711	154.440000
356.647186	154.640000
356.740631	154.580000
356.834106	154.360000
356.927551	154.380000
357.021027	154.580000
357.114471	154.360000
357.207947	154.500000
357.301422	154.940000
357.394867	154.720000
357.488342	154.980000
357.581818	155.220000
357.675262	155.240000
357.768738	154.760000
357.862213	154.020000
357.955658	153.940000
358.049133	153.700000
358.142609	153.960000
358.236053	153.980000
358.329529	154.500000
358.423035	154.860000
358.516449	154.180000
358.609955	154.300000
358.703400	155.080000
358.796906	154.780000
358.890350	154.080000
358.983826	154.920000
359.077271	154.140000
359.170776	153.460000
359.264221	153.560000
359.357727	153.840000
359.451172	154.020000
359.544647	154.500000
359.638123	154.580000
359.731598	154.900000
359.825073	155.280000
359.918549	155.040000
360.012024	155.180000
360.105499	154.520000
360.198975	154.360000
360.292450	154.180000
360.385925	154.040000
360.479401	153.420000
360.572876	153.940000
360.666351	154.100000
360.759857	154.180000
360.853302	154.040000
360.946808	153.820000
361.040253	153.820000
361.133759	153.480000
361.227203	153.560000
361.320709	153.260000
361.414154	153.960000
361.507660	154.520000
361.601105	155.000000
361.694641	155.240000
361.788086	155.340000
361.881592	155.520000
361.975067	154.980000
362.068542	155.280000
362.162018	155.100000
362.255524	155.060000
362.348999	155.040000
362.442474	155.440000
362.535950	154.640000
362.629456	154.440000
362.722931	154.360000
362.816406	154.500000
362.909882	154.780000
363.003387	154.640000
363.096863	155.120000
363.190338	155.320000
363.283875	154.780000
363.377319	154.480000
363.470825	155.520000
363.564301	154.680000
363.657806	155.080000
363.751282	154.800000
363.844788	155.460000
363.938232	154.620000
364.031769	155.320000
364.125214	155.100000
364.218750	155.960000
364.312225	154.760000
364.405731	154.680000
364.499207	154.140000
364.592712	154.080000
364.686188	153.640000
364.779694	153.720000
364.873169	153.820000
364.966675	154.080000
365.060150	154.140000
365.153656	154.740000
365.247131	154.920000
365.340637	155.400000
365.434143	155.780000
365.527618	155.600000
365.621155	154.420000
365.714600	154.560000
365.808136	154.420000
365.901611	153.240000
365.995117	153.440000
366.088593	153.660000
366.182129	153.200000
366.275604	153.100000
366.369110	153.520000
366.462585	153.360000
366.556122	154.240000
366.649567	154.480000
366.743103	154.500000
366.836609	154.180000
366.930115	154.500000
367.023590	154.200000
367.117096	154.040000
367.210602	154.060000
367.304108	155.180000
367.397614	155.520000
367.491119	155.620000
367.584595	156.080000
367.678101	156.360000
367.771606	155.500000
367.865112	155.000000
367.958649	154.280000
368.052124	153.640000
368.145660	153.180000
368.239136	153.760000
368.332672	153.460000
368.426147	153.720000
368.519684	153.740000
368.613159	154.140000
368.706696	153.620000
368.800171	153.960000
368.893707	153.880000
368.987183	154.280000
369.080719	153.920000
369.174225	153.860000
369.267731	154.000000
369.361237	154.160000
369.454742	154.100000
369.548248	154.900000
369.641754	154.960000
369.735260	154.440000
369.828766	153.500000
369.922272	154.280000
370.015808	153.400000
370.109314	153.480000
370.202820	153.640000
370.296356	155.220000
370.389832	154.360000
370.483368	154.200000
370.576874	153.840000
370.670410	153.980000
370.763885	153.060000
370.857422	152.880000
370.950928	152.720000
371.044464	153.800000
371.137939	153.640000
371.231476	153.760000
371.324982	154.500000
371.418518	155.520000
371.512024	155.240000
371.605560	155.300000
371.699066	155.440000
371.792572	155.140000
371.886108	155.280000
371.979614	154.700000
372.073120	155.080000
372.166656	155.320000
372.260162	155.380000
372.353668	154.560000
372.447205	154.340000
372.540710	154.360000
372.634277	153.980000
372.727753	154.000000
372.821320	154.180000
372.914795	154.360000
373.008362	154.140000
373.101837	154.280000
373.195404	154.340000
373.288879	154.320000
373.382446	155.200000
373.475922	155.300000
373.569489	155.960000
373.662964	156.020000
373.756531	156.100000
373.850037	155.840000
373.943573	155.400000
374.037109	154.380000
374.130615	154.480000
374.224152	154.460000
374.317657	153.820000
374.411194	155.060000
374.504730	155.200000
374.598236	154.700000
374.691772	154.300000
374.785309	154.740000
374.878815	153.380000
374.972351	153.880000
375.065887	153.840000
375.159454	154.960000
375.252930	154.560000
375.346497	155.020000
375.440002	155.280000
375.533569	155.360000
375.627045	154.080000
375.720612	154.340000
375.814117	154.820000
375.907684	154.080000
376.001160	154.180000
376.094727	154.280000
376.188232	155.060000
376.281799	154.720000
376.375336	154.940000
376.468872	155.400000
376.562408	155.680000
376.655914	155.100000
376.749451	155.140000
376.842987	155.520000
376.936523	155.360000
377.030060	155.560000
377.123596	155.600000
377.217133	154.880000
377.310669	154.420000
377.404205	154.640000
377.497772	155.000000
377.591278	154.940000
377.684845	156.240000
377.778351	156.900000
377.871918	156.240000
377.965424	155.400000
378.058990	155.200000
378.152496	154.520000
378.246063	154.440000
378.339569	154.940000
378.433136	155.180000
378.526642	155.300000
378.620209	155.260000
378.713745	154.660000
378.807312	154.700000
378.900848	154.680000
378.994385	154.880000
379.087921	154.080000
379.181458	154.480000
379.274994	153.400000
379.368530	153.200000
379.462097	153.300000
379.555634	154.060000
379.649170	153.440000
379.742706	153.880000
379.836273	154.240000
379.929810	153.820000
380.023376	153.620000
380.116882	153.640000
380.210449	153.720000
380.303986	153.120000
380.397552	152.520000
380.491058	152.820000
380.584656	152.840000
380.678162	153.140000
380.771729	153.480000
380.865265	154.800000
380.958832	155.000000
381.052368	155.420000
381.145935	155.860000
381.239471	156.520000
381.333008	155.840000
381.426575	155.520000
381.520111	155.840000
381.613647	155.520000
381.707214	154.820000
381.800751	154.340000
381.894318	154.760000
381.987854	154.180000
382.081421	154.240000
382.174988	154.440000
382.268524	154.520000
382.362091	154.020000
382.455627	154.860000
382.549194	154.460000
382.642731	153.780000
382.736298	153.760000
382.829834	153.780000
382.923401	154.100000
383.016937	154.400000
383.110504	154.940000
383.204041	155.220000
383.297607	155.440000
383.391174	154.440000
383.484741	154.840000
383.578278	154.560000
383.671844	154.200000
383.765411	153.400000
383.858948	154.000000
383.952515	153.560000
384.046051	154.040000
384.139618	154.580000
384.233185	155.460000
384.326721	155.100000
384.420288	155.540000
384.513855	155.600000
384.607422	155.760000
384.700989	155.560000
384.794525	154.620000
384.888123	154.400000
384.981659	154.520000
385.075226	154.080000
385.168762	154.000000
385.262360	154.640000
385.355896	153.720000
385.449463	153.140000
385.542999	153.240000
385.636597	153.820000
385.730164	153.900000
385.823730	153.840000
385.917267	153.800000
386.010834	153.820000
386.104401	153.420000
386.197968	154.120000
386.291534	154.900000
386.385101	155.040000
386.478668	155.580000
386.572235	155.560000
386.665802	154.440000
386.759338	153.820000
386.852905	153.700000
386.946472	153.260000
387.040070	153.520000
387.133606	153.540000
387.227203	153.600000
387.320740	154.000000
387.414337	153.480000
387.507874	153.280000
387.601471	153.780000
387.695007	153.580000
387.788605	153.400000
387.882141	153.980000
387.975739	153.940000
388.069275	153.460000
388.162872	154.160000
388.256439	153.880000
388.350037	153.440000
388.443604	153.400000
388.537170	153.800000
388.630737	154.320000
388.724304	154.660000
388.817871	154.400000
388.911438	154.120000
389.005005	154.360000
389.098602	154.080000
389.192169	153.880000
389.285736	154.940000
389.379333	154.980000
389.472870	154.420000
389.566467	154.260000
389.660034	154.400000
389.753632	153.440000
389.847168	154.120000
389.940765	154.500000
390.034332	154.600000
390.127930	153.860000
390.221466	154.060000
390.315063	153.260000
390.408630	152.600000
390.502228	151.620000
390.595795	152.400000
390.689362	152.540000
390.782959	153.140000
390.876526	153.760000
390.970093	154.160000
391.063690	154.600000
391.157257	154.540000
391.250824	154.940000
391.344421	154.500000
391.437988	155.240000
391.531555	155.040000
391.625153	155.340000
391.718750	154.940000
391.812317	155.160000
391.905914	154.440000
391.999481	154.300000
392.093079	154.420000
392.186615	154.640000
392.280243	154.780000
392.373779	155.260000
392.467407	155.840000
392.560944	155.560000
392.654572	155.060000
392.748108	154.820000
392.841736	154.780000
392.935303	154.140000
393.028900	153.960000
393.122467	154.060000
393.216064	154.000000
393.309631	153.220000
393.403229	153.020000
393.496796	153.140000
393.590393	152.320000
393.683990	152.720000
393.777557	153.800000
393.871155	154.160000
393.964722	154.420000
394.058350	154.860000
394.151917	154.660000
394.245514	154.140000
394.339081	154.280000
394.432678	154.500000
394.526245	154.800000
394.619873	154.500000
394.713409	154.600000
394.807037	154.320000
394.900604	154.320000
394.994202	154.260000
395.087769	154.780000
395.181396	154.200000
395.274994	154.900000
395.368561	154.200000
395.462158	154.560000
395.555756	154.000000
395.649353	154.780000
395.742920	154.380000
395.836517	155.020000
395.930115	154.200000
396.023712	154.440000
396.117279	154.560000
396.210876	153.780000
396.304474	153.840000
396.398071	154.440000
396.491669	154.640000
396.585266	153.980000
396.678833	153.920000
396.772461	153.780000
396.866028	153.300000
396.959656	153.120000
397.053223	153.680000
397.146851	153.780000
397.240417	153.540000
397.334015	154.640000
397.427582	154.560000
397.521210	154.380000
397.614807	155.060000
397.708405	155.460000
397.802002	154.680000
397.895599	155.500000
397.989197	155.320000
398.082794	155.200000
398.176392	155.140000
398.269989	155.760000
398.363586	155.640000
398.457184	156.500000
398.550781	156.740000
398.644379	156.560000
398.737976	156.100000
398.831573	156.420000
398.925201	156.200000
399.018768	157.200000
399.112396	159.340000
399.205963	162.700000
399.299591	166.960000
399.393158	174.220000
399.486786	185.520000
399.580353	204.680000
399.673981	241.700000
399.767578	307.560000
399.861206	406.480000
399.954773	531.540000
400.048401	655.480000
400.141998	747.360000
400.235596	782.780000
400.329193	749.360000
400.422791	656.980000
400.516418	536.800000
400.610016	417.700000
400.703613	319.900000
400.797211	250.800000
400.890808	208.980000
400.984436	186.420000
401.078033	174.980000
401.171631	167.880000
401.265259	164.840000
401.358826	162.760000
401.452484	161.340000
401.546051	160.340000
401.639679	159.500000
401.733246	158.680000
401.826904	157.720000
401.920471	156.400000
402.014099	156.160000
402.107697	155.840000
402.201324	155.760000
402.294891	155.800000
402.388550	156.100000
402.482147	155.860000
402.575745	155.700000
402.669373	155.060000
402.762970	154.660000
402.856567	154.500000
402.950195	154.500000
403.043793	154.440000
403.137390	155.200000
403.231018	154.500000
403.324615	155.540000
403.418243	154.860000
403.511841	155.460000
403.605469	155.360000
403.699066	156.200000
403.792694	155.560000
403.886292	156.080000
403.979919	155.500000
404.073517	155.040000
404.167145	154.880000
404.260712	154.620000
404.354370	154.120000
404.447937	154.460000
404.541595	154.820000
404.635162	155.440000
404.728821	156.260000
404.822418	156.000000
404.916046	155.820000
405.009644	156.040000
405.103271	155.700000
405.196899	154.720000
405.290497	155.260000
405.384125	155.060000
405.477722	154.360000
405.571350	154.180000
405.664948	154.340000
405.758575	153.800000
405.852203	153.480000
405.945801	153.920000
406.039429	153.720000
406.133057	153.640000
406.226654	153.780000
406.320312	153.980000
406.413879	153.820000
406.507538	153.860000
406.601135	153.360000
406.694763	153.980000
406.788361	153.800000
406.882019	153.520000
406.975586	153.920000
407.069244	154.760000
407.162872	154.500000
407.256470	154.520000
407.350098	154.540000
407.443726	154.080000
407.537323	153.520000
407.630951	153.680000
407.724579	153.400000
407.818207	153.840000
407.911804	153.640000
408.005432	153.500000
408.099060	153.700000
408.192688	154.300000
408.286285	154.160000
408.379913	154.060000
408.473572	154.420000
408.567169	153.400000
408.660828	153.500000
408.754395	153.040000
408.848053	153.260000
408.941650	153.360000
409.035309	153.460000
409.128906	153.180000
409.222565	153.660000
409.316132	153.800000
409.409790	153.400000
409.503387	153.760000
409.597046	153.960000
409.690674	153.940000
409.784302	154.200000
409.877930	154.140000
409.971558	154.320000
410.065186	154.160000
410.158783	153.860000
410.252411	153.620000
410.346039	154.560000
410.439667	154.320000
410.533295	154.560000
410.626923	155.180000
410.720551	154.400000
410.814209	154.560000
410.907806	154.800000
411.001465	153.880000
411.095062	153.780000
411.188721	154.620000
411.282318	153.860000
411.375977	153.520000
411.469574	154.060000
411.563232	153.420000
411.656830	153.180000
411.750488	153.040000
411.844086	153.140000
411.937744	153.500000
412.031372	154.020000
412.125000	154.060000
412.218628	154.340000
412.312256	155.320000
412.405884	155.300000
412.499512	154.900000
412.593170	155.460000
412.686798	155.240000
412.780426	154.180000
412.874054	154.320000
412.967682	154.420000
413.061310	154.540000
413.154968	154.940000
413.248566	155.460000
413.342224	155.180000
413.435852	155.580000
413.529510	155.340000
413.623108	154.340000
413.716766	154.060000
413.810364	154.440000
413.904022	153.780000
413.997650	153.200000
414.091309	154.400000
414.184906	154.100000
414.278564	153.700000
414.372192	154.180000
414.465851	154.560000
414.559479	153.820000
414.653107	154.700000
414.746735	154.580000
414.840393	154.800000
414.934021	155.020000
415.027649	154.880000
415.121277	154.540000
415.214935	154.980000
415.308563	154.740000
415.402191	153.960000
415.495850	154.140000
415.589478	154.020000
415.683136	154.000000
415.776733	153.880000
415.870422	154.860000
415.964020	154.600000
416.057678	154.560000
416.151306	154.400000
416.244965	154.560000
416.338562	154.000000
416.432251	154.940000
416.525848	155.640000
416.619507	155.800000
416.713165	156.100000
416.806793	156.280000
416.900421	156.120000
416.994080	155.260000
417.087708	155.240000
417.181366	154.840000
417.274994	154.540000
417.368622	154.620000
417.462280	155.280000
417.555908	155.120000
417.649567	154.880000
417.743195	154.780000
417.836853	154.640000
417.930481	154.720000
418.024170	154.840000
418.117767	155.340000
418.211426	156.160000
418.305054	156.100000
418.398712	155.660000
418.492340	155.700000
418.585999	155.620000
418.679626	155.180000
418.773285	155.460000
418.866913	155.480000
418.960571	155.460000
419.054230	155.940000
419.147858	155.900000
419.241516	155.820000
419.335144	155.520000
419.428802	155.400000
419.522461	154.440000
419.616089	154.360000
419.709747	154.500000
419.803375	154.660000
419.897034	154.560000
419.990662	154.700000
420.084320	154.920000
420.177979	154.740000
420.271606	155.080000
420.365295	155.400000
420.458893	155.820000
420.552582	156.060000
420.646210	155.760000
420.739868	155.440000
420.833496	155.240000
420.927155	154.640000
421.020782	154.280000
421.114471	153.800000
421.208069	153.800000
421.301758	154.200000
421.395386	154.640000
421.489044	154.540000
421.582703	155.200000
421.676361	156.020000
421.769989	155.420000
421.863647	155.820000
421.957306	155.900000
422.050934	155.880000
422.144592	155.380000
422.238251	155.400000
422.331909	154.800000
422.425537	154.820000
422.519196	154.600000
422.612854	154.160000
422.706543	153.980000
422.800140	154.340000
422.893829	153.820000
422.987457	153.380000
423.081146	153.540000
423.174744	154.080000
423.268433	153.860000
423.362061	154.160000
423.455750	154.260000
423.549347	154.400000
423.643036	153.720000
423.736664	154.320000
423.830353	154.340000
423.924011	155.080000
424.017639	154.540000
424.111298	154.760000
424.204956	154.180000
424.298615	154.620000
424.392273	154.260000
424.485931	154.540000
424.579559	155.020000
424.673218	154.960000
424.766876	154.620000
424.860535	154.200000
424.954193	154.080000
425.047882	154.120000
425.141510	154.040000
425.235199	154.200000
425.328796	154.500000
425.422485	155.100000
425.516113	154.520000
425.609802	154.680000
425.703430	155.000000
425.797119	155.040000
425.890747	154.640000
425.984436	154.920000
426.078064	155.280000
426.171753	155.040000
426.265411	154.720000
426.359070	155.040000
426.452728	154.940000
426.546356	154.560000
426.640015	154.440000
426.733673	154.780000
426.827332	154.100000
426.920990	155.220000
427.014648	155.100000
427.108307	155.100000
427.201965	155.840000
427.295624	156.560000
427.389282	155.360000
427.482941	155.680000
427.576630	155.660000
427.670258	154.580000
427.763947	154.180000
427.857574	154.380000
427.951263	154.080000
428.044922	153.940000
428.138611	154.360000
428.232239	155.020000
428.325928	155.760000
428.419556	156.540000
428.513245	156.400000
428.606903	156.480000
428.700562	155.720000
428.794220	154.480000
428.887878	153.860000
428.981537	154.320000
429.075195	154.400000
429.168854	154.940000
429.262512	155.560000
429.356201	155.720000
429.449860	155.760000
429.543518	155.620000
429.637177	155.800000
429.730835	155.860000
429.824493	155.480000
429.918182	155.680000
430.011810	155.180000
430.105530	154.220000
430.199158	154.200000
430.292847	154.460000
430.386475	153.920000
430.480164	154.140000
430.573792	154.280000
430.667511	154.220000
430.761139	154.340000
430.854828	154.860000
430.948456	155.100000
431.042145	155.720000
431.135834	155.540000
431.229492	155.560000
431.323151	155.460000
431.416809	155.500000
431.510468	155.380000
431.604156	155.440000
431.697815	155.640000
431.791473	154.960000
431.885132	154.860000
431.978821	155.220000
432.072479	155.460000
432.166138	155.560000
432.259827	156.180000
432.353485	156.160000
432.447174	156.060000
432.540802	155.660000
432.634491	155.560000
432.728149	155.500000
432.821838	156.300000
432.915466	155.600000
433.009186	156.000000
433.102814	155.500000
433.196503	155.280000
433.290131	154.760000
433.383850	155.500000
433.477509	155.460000
433.571167	156.500000
433.664856	156.820000
433.758514	157.360000
433.852173	157.160000
433.945862	156.900000
434.039520	156.400000
434.133179	155.780000
434.226868	155.120000
434.320526	154.400000
434.414185	155.120000
434.507874	154.600000
434.601562	154.980000
434.695221	154.960000
434.788910	155.520000
434.882538	155.280000
434.976257	155.100000
435.069885	155.180000
435.163574	155.180000
435.257233	154.960000
435.350922	154.780000
435.444580	154.560000
435.538269	154.700000
435.631897	155.440000
435.725616	155.860000
435.819275	156.300000
435.912964	157.440000
436.006622	157.720000
436.100311	157.180000
436.193970	156.620000
436.287628	155.900000
436.381317	155.240000
436.474976	154.660000
436.568665	154.260000
436.662323	154.440000
436.756012	154.680000
436.849670	154.640000
436.943390	154.600000
437.037018	154.740000
437.130737	154.620000
437.224365	154.460000
437.318085	154.800000
437.411713	154.800000
437.505432	155.080000
437.599060	155.800000
437.692780	156.300000
437.786407	155.900000
437.880127	156.020000
437.973755	155.560000
438.067474	154.820000
438.161133	154.580000
438.254822	155.160000
438.348480	154.980000
438.442169	155.860000
438.535828	156.460000
438.629517	155.760000
438.723175	154.660000
438.816864	155.360000
438.910553	154.440000
439.004211	153.840000
439.097900	154.100000
439.191559	154.920000
439.285248	154.180000
439.378906	154.520000
439.472626	154.600000
439.566284	154.680000
439.659973	154.600000
439.753632	154.380000
439.847321	154.720000
439.940979	154.900000
440.034698	154.860000
440.128326	154.480000
440.222046	154.580000
440.315674	153.680000
440.409393	153.520000
440.503082	153.600000
440.596741	153.720000
440.690430	154.120000
440.784088	154.000000
440.877777	153.500000
440.971466	153.600000
441.065125	153.260000
441.158813	152.900000
441.252502	153.660000
441.346161	153.980000
441.439850	154.120000
441.533539	154.120000
441.627197	154.380000
441.720886	154.060000
441.814606	154.860000
441.908234	154.820000
442.001953	155.100000
442.095612	154.960000
442.189301	155.220000
442.282959	154.780000
442.376678	154.400000
442.470306	155.040000
442.564026	154.800000
442.657684	154.720000
442.751404	155.000000
442.845032	155.960000
442.938751	155.160000
443.032440	155.620000
443.126099	155.360000
443.219788	155.800000
443.313477	155.160000
443.407166	155.700000
443.500824	155.340000
443.594513	155.520000
443.688202	154.580000
443.781891	154.200000
443.875549	153.640000
443.969238	154.040000
444.062927	154.060000
444.156647	154.160000
444.250275	154.720000
444.343994	155.120000
444.437653	154.760000
444.531372	154.660000
444.625031	154.600000
444.718719	154.000000
444.812378	154.000000
444.906097	154.200000
444.999756	153.620000
445.093445	153.740000
445.187103	154.080000
445.280823	154.380000
445.374512	153.840000
445.468201	154.380000
445.561859	154.180000
445.655548	154.180000
445.749237	153.760000
445.842926	154.060000
445.936615	154.400000
446.030304	154.260000
446.123962	154.520000
446.217651	154.620000
446.311340	154.940000
446.405029	154.180000
446.498749	154.160000
446.592407	153.760000
446.686096	153.740000
446.779755	153.540000
446.873474	154.300000
446.967133	154.540000
447.060852	154.520000
447.154510	154.380000
447.248230	154.460000
447.341858	154.040000
447.435577	153.760000
447.529236	153.480000
447.622955	153.140000
447.716644	153.100000
447.810333	153.260000
447.904022	153.700000
447.997711	153.640000
448.091400	154.180000
448.185059	154.000000
448.278748	154.400000
448.372437	154.120000
448.466125	154.860000
448.559814	154.620000
448.653503	155.040000
448.747192	154.980000
448.840912	155.560000
448.934570	154.940000
449.028290	155.440000
449.121948	155.140000
449.215637	154.440000
449.309296	153.680000
449.403015	154.100000
449.496674	153.660000
449.590393	153.480000
449.684052	153.600000
449.777771	154.660000
449.871429	153.960000
449.965149	154.180000
450.058838	154.580000
450.152527	155.260000
450.246216	154.660000
450.339905	155.200000
450.433594	154.820000
450.527283	155.600000
450.620972	154.840000
450.714661	154.860000
450.808350	154.980000
450.902039	155.280000
450.995728	154.500000
451.089417	154.780000
451.183105	154.840000
451.276794	155.160000
451.370514	154.620000
451.464172	153.840000
451.557892	153.760000
451.651550	154.040000
451.745270	153.420000
451.838928	153.080000
451.932648	153.640000
452.026306	153.800000
452.120026	152.840000
452.213684	153.520000
452.307404	154.240000
452.401062	154.460000
452.494781	154.700000
452.588470	154.960000
452.682159	154.200000
452.775848	154.460000
452.869537	153.660000
452.963226	153.080000
453.056915	153.440000
453.150604	153.560000
453.244293	153.560000
453.337982	154.600000
453.431671	155.060000
453.525360	155.240000
453.619049	155.360000
453.712769	154.860000
453.806427	154.040000
453.900146	153.940000
453.993805	153.660000
454.087555	153.940000
454.181213	154.540000
454.274933	154.800000
454.368591	154.760000
454.462311	154.760000
454.555969	154.220000
454.649689	154.780000
454.743347	154.780000
454.837067	155.020000
454.930756	155.400000
455.024445	155.760000
455.118134	154.880000
455.211853	154.900000
455.305542	154.940000
455.399231	154.760000
455.492920	154.620000
455.586609	154.380000
455.680298	154.780000
455.773987	154.080000
455.867676	154.020000
455.961365	154.140000
456.055084	154.380000
456.148773	153.800000
456.242493	154.100000
456.336151	154.180000
456.429871	154.580000
456.523529	154.840000
456.617249	154.540000
456.710907	155.120000
456.804626	154.720000
456.898315	153.800000
456.992035	153.540000
457.085693	153.520000
457.179413	152.260000
457.273102	153.180000
457.366791	153.400000
457.460480	153.800000
457.554199	154.800000
457.647888	155.380000
457.741577	154.600000
457.835266	154.700000
457.928955	154.500000
458.022644	154.320000
458.116364	154.760000
458.210052	154.800000
458.303741	154.920000
458.397461	154.400000
458.491119	153.680000
458.584839	153.560000
458.678528	153.420000
458.772247	153.260000
458.865906	153.540000
458.959625	154.760000
459.053284	154.660000
459.147003	154.480000
459.240692	155.220000
459.334412	155.360000
459.428070	154.680000
459.521790	154.500000
459.615479	154.640000
459.709198	154.780000
459.802887	154.400000
459.896576	154.360000
459.990265	154.660000
460.083954	154.660000
460.177673	153.720000
460.271362	154.000000
460.365051	153.860000
460.458740	153.420000
460.552429	153.040000
460.646149	153.300000
460.739838	152.640000
460.833527	152.820000
460.927246	152.560000
461.020905	152.620000
461.114655	152.560000
461.208313	153.380000
461.302032	152.700000
461.395691	153.400000
461.489441	153.840000
461.583099	153.580000
461.676819	153.240000
461.770477	153.720000
461.864197	152.960000
461.957916	152.660000
462.051605	152.600000
462.145294	153.480000
462.238983	153.560000
462.332703	154.380000
462.426392	154.960000
462.520081	154.820000
462.613770	154.060000
462.707489	154.140000
462.801178	153.900000
462.894867	153.660000
462.988556	154.020000
463.082275	154.120000
463.175964	154.040000
463.269684	154.280000
463.363342	154.240000
463.457092	153.420000
463.550751	153.700000
463.644470	153.580000
463.738129	153.160000
463.831879	153.280000
463.925537	154.420000
464.019257	154.260000
464.112946	154.060000
464.206665	154.160000
464.300323	154.160000
464.394043	153.680000
464.487762	153.480000
464.581451	154.140000
464.675140	154.060000
464.768829	154.260000
464.862549	154.580000
464.956238	155.000000
465.049927	154.960000
465.143646	155.160000
465.237335	154.580000
465.331024	154.740000
465.424713	154.640000
465.518433	154.160000
465.612152	153.600000
465.705811	153.600000
465.799561	153.220000
465.893219	152.660000
465.986938	152.940000
466.080597	153.120000
466.174347	153.660000
466.268005	153.780000
466.361725	153.840000
466.455414	153.800000
466.549133	153.700000
466.642792	153.560000
466.736542	153.400000
466.830231	153.660000
466.923920	153.660000
467.017609	153.840000
467.111328	153.280000
467.205017	153.480000
467.298706	153.060000
467.392426	153.420000
467.486115	153.640000
467.579803	153.680000
467.673523	153.860000
467.767212	154.300000
467.860901	154.020000
467.954651	154.180000
468.048309	154.580000
468.142029	154.440000
468.235718	154.620000
468.329437	154.120000
468.423096	154.060000
468.516846	154.020000
468.610504	153.580000
468.704224	153.120000
468.797913	153.480000
468.891632	153.440000
468.985291	153.300000
469.079010	153.680000
469.172729	153.520000
469.266418	153.800000
469.360107	154.100000
469.453827	153.840000
469.547516	153.880000
469.641205	154.460000
469.734924	154.500000
469.828613	154.560000
469.922302	155.020000
470.016022	154.880000
470.109711	154.680000
470.203430	154.060000
470.297150	152.760000
470.390808	152.920000
470.484558	153.100000
470.578217	153.500000
470.671936	153.940000
470.765625	155.480000
470.859344	154.860000
470.953003	155.080000
471.046753	154.540000
471.140411	153.900000
471.234131	153.780000
471.327820	154.800000
471.421539	154.220000
471.515228	154.040000
471.608948	154.460000
471.702637	153.400000
471.796326	152.680000
471.890045	153.380000
471.983734	153.580000
472.077423	153.260000
472.171143	154.160000
472.264832	154.300000
472.358521	153.900000
472.452240	153.860000
472.545929	154.620000
472.639648	154.340000
472.733337	154.640000
472.827057	154.540000
472.920746	154.820000
473.014465	155.100000
473.108124	155.300000
473.201874	155.020000
473.295532	155.020000
473.389252	155.160000
473.482941	154.860000
473.576660	154.380000
473.670319	153.980000
473.764069	154.060000
473.857727	154.180000
473.951477	154.200000
474.045166	154.600000
474.138855	154.820000
474.232574	154.680000
474.326263	154.680000
474.419952	154.840000
474.513672	154.900000
474.607361	154.780000
474.701050	155.220000
474.794769	155.180000
474.888458	155.280000
474.982178	155.340000
475.075867	155.400000
475.169586	155.020000
475.263275	154.900000
475.356995	154.900000
475.450653	154.360000
475.544403	154.380000
475.638062	155.120000
475.731812	154.800000
475.825470	154.380000
475.919189	154.840000
476.012878	154.980000
476.106598	154.500000
476.200256	154.600000
476.294006	154.600000
476.387695	154.260000
476.481384	154.060000
476.575104	153.940000
476.668793	153.760000
476.762512	153.500000
476.856201	154.080000
476.949890	153.820000
477.043610	153.220000
477.137299	153.520000
477.230988	154.160000
477.324707	153.600000
477.418396	154.360000
477.512146	154.760000
477.605804	154.240000
477.699524	154.160000
477.793213	154.360000
477.886932	153.920000
477.980591	153.560000
478.074341	153.640000
478.167999	152.580000
478.261749	152.500000
478.355408	152.520000
478.449127	153.160000
478.542816	154.360000
478.636536	155.760000
478.730225	155.640000
478.823944	155.780000
478.917633	156.020000
479.011322	155.660000
479.105042	155.060000
479.198730	155.400000
479.292450	155.000000
479.386139	154.960000
479.479828	154.720000
479.573547	155.120000
479.667267	154.940000
479.760925	155.200000
479.854675	155.320000
479.948334	155.380000
480.042084	154.780000
480.135742	154.700000
480.229462	154.500000
480.323151	154.280000
480.416870	153.580000
480.510529	153.580000
480.604279	153.300000
480.697937	153.480000
480.791656	152.940000
480.885345	153.160000
480.979065	153.240000
481.072754	153.980000
481.166473	154.520000
481.260132	154.820000
481.353882	154.960000
481.447540	154.840000
481.541260	154.660000
481.635010	154.280000
481.728668	154.320000
481.822388	153.960000
481.916077	154.460000
482.009796	154.140000
482.103485	154.140000
482.197205	153.880000
482.290863	154.420000
482.384613	153.820000
482.478271	153.580000
482.571991	153.460000
482.665680	153.540000
482.759399	153.940000
482.853058	154.740000
482.946808	154.940000
483.040466	154.780000
483.134216	154.900000
483.227875	154.280000
483.321594	154.240000
483.415283	154.340000
483.509003	154.420000
483.602661	154.360000
483.696411	154.640000
483.790070	154.260000
483.883789	154.340000
483.977478	154.940000
484.071198	154.860000
484.164917	154.440000
484.258606	154.200000
484.352325	154.420000
484.445984	154.260000
484.539734	154.440000
484.633392	154.380000
484.727142	154.860000
484.820801	154.900000
484.914520	154.660000
485.008209	154.720000
485.101929	155.240000
485.195587	154.680000
485.289337	154.540000
485.382996	154.480000
485.476715	154.400000
485.570404	154.520000
485.664124	154.740000
485.757782	154.840000
485.851532	154.760000
485.945190	154.900000
486.038910	154.660000
486.132599	154.880000
486.226318	154.380000
486.319977	154.360000
486.413727	154.620000
486.507446	154.180000
486.601105	153.660000
486.694855	153.680000
486.788513	153.620000
486.882233	153.200000
486.975922	153.460000
487.069641	153.420000
487.163300	153.300000
487.257050	154.600000
487.350708	154.420000
487.444427	154.260000
487.538116	154.280000
487.631836	154.480000
487.725494	153.800000
487.819214	154.160000
487.912903	154.320000
488.006622	154.800000
488.100281	154.860000
488.194031	154.480000
488.287689	154.900000
488.381409	155.540000
488.475098	155.420000
488.568817	155.780000
488.662476	155.620000
488.756226	154.900000
488.849945	153.740000
488.943604	153.860000
489.037354	153.860000
489.131012	153.900000
489.224731	153.980000
489.318390	154.400000
489.412140	153.940000
489.505798	153.620000
489.599518	153.540000
489.693207	153.740000
489.786926	153.560000
489.880585	153.540000
489.974335	153.620000
490.067993	154.520000
490.161713	154.780000
490.255371	155.400000
490.349121	155.700000
490.442780	155.420000
490.536499	154.560000
490.630188	154.080000
490.723907	153.540000
490.817566	153.960000
490.911285	154.060000
491.004974	153.900000
491.098694	153.440000
491.192413	154.360000
491.286102	153.760000
491.379822	153.700000
491.473480	154.020000
491.567200	154.540000
491.660889	153.320000
491.754608	153.580000
491.848267	153.500000
491.941986	153.280000
492.035675	153.260000
492.129395	153.880000
492.223053	153.740000
492.316772	154.360000
492.410461	154.600000
492.504181	154.580000
492.597839	154.160000
492.691559	154.200000
492.785248	154.140000
492.878967	154.140000
492.972626	154.000000
493.066345	154.160000
493.160034	153.660000
493.253754	153.480000
493.347412	152.960000
493.441132	153.120000
493.534882	154.080000
493.628540	154.720000
493.722260	154.720000
493.815918	155.440000
493.909668	155.560000
494.003326	155.440000
494.097046	155.220000
494.190704	155.160000
494.284454	154.940000
494.378113	155.220000
494.471832	154.860000
494.565491	154.660000
494.659210	154.440000
494.752899	154.220000
494.846619	154.180000
494.940277	153.960000
495.033997	153.920000
495.127686	154.100000
495.221405	154.140000
495.315063	153.780000
495.408783	153.740000
495.502441	153.880000
495.596191	153.800000
495.689850	153.660000
495.783569	153.940000
495.877228	154.160000
495.970947	154.020000
496.064697	153.820000
496.158356	154.660000
496.252075	154.500000
496.345734	154.260000
496.439453	155.180000
496.533142	155.320000
496.626862	155.500000
496.720520	155.400000
496.814240	155.680000
496.907898	155.060000
497.001617	155.380000
497.095306	154.120000
497.189026	154.140000
497.282684	153.960000
497.376404	154.440000
497.470062	153.940000
497.563782	154.620000
497.657471	154.420000
497.751190	154.180000
497.844849	153.960000
497.938568	154.660000
498.032227	154.520000
498.125946	154.760000
498.219635	154.460000
498.313354	154.340000
498.407074	153.960000
498.500732	153.960000
498.594452	154.120000
498.688110	154.200000
498.781830	153.860000
498.875519	153.680000
498.969238	153.500000
499.062897	153.100000
499.156616	153.820000
499.250275	154.160000
499.343994	153.700000
499.437653	153.860000
499.531372	153.960000
499.625061	154.260000
499.718781	154.260000
499.812439	154.880000
499.906158	154.680000
499.999817	154.740000
500.093536	153.960000
500.187195	153.880000
500.280914	153.920000
500.374573	154.160000
500.468323	154.100000
500.561981	154.600000
500.655701	154.300000
500.749420	154.260000
500.843079	154.440000
500.936798	154.360000
501.030457	154.240000
501.124176	154.740000
501.217834	154.780000
501.311554	154.420000
501.405212	154.380000
501.498962	153.820000
501.592621	153.300000
501.686340	153.520000
501.779999	153.620000
501.873718	153.800000
501.967377	154.140000
502.061096	154.320000
502.154755	153.480000
502.248474	153.620000
502.342133	153.860000
502.435852	153.900000
502.529510	154.740000
502.623230	155.880000
502.716888	155.420000
502.810608	155.360000
502.904266	155.720000
502.997986	155.300000
503.091705	154.640000
503.185364	154.720000
503.279083	154.600000
503.372772	154.240000
503.466492	153.640000
503.560150	153.860000
503.653870	154.200000
503.747528	154.000000
503.841248	153.900000
503.934906	154.380000
504.028625	153.820000
504.122284	154.040000
504.216003	154.980000
504.309662	154.780000
504.403381	155.020000
504.497040	155.240000
504.590759	154.900000
504.684418	154.640000
504.778137	155.460000
504.871796	155.540000
504.965515	155.280000
505.059174	155.400000
505.152893	154.440000
505.246521	153.740000
505.340240	153.340000
505.433899	153.600000
505.527618	153.660000
505.621338	154.460000
505.714996	154.160000
505.808716	153.820000
505.902374	154.720000
505.996094	154.460000
506.089752	154.120000
506.183472	154.540000
506.277130	154.880000
506.370850	154.140000
506.464508	154.200000
506.558228	154.120000
506.651886	153.780000
506.745605	153.820000
506.839264	153.820000
506.932983	154.040000
507.026611	153.860000
507.120331	154.260000
507.213989	153.400000
507.307709	153.600000
507.401367	153.780000
507.495087	155.160000
507.588745	154.600000
507.682465	155.720000
507.776123	155.260000
507.869843	154.920000
507.963531	154.040000
508.057190	154.700000
508.150909	153.800000
508.244568	154.360000
508.338287	154.060000
508.431946	153.660000
508.525665	153.320000
508.619324	153.580000
508.713013	153.660000
508.806671	154.260000
508.900391	155.320000
508.994049	155.760000
509.087769	155.500000
509.181427	155.160000
509.275146	154.600000
509.368774	153.640000
509.462494	153.480000
509.556152	153.800000
509.649872	154.020000
509.743530	154.360000
509.837250	154.520000
509.930878	154.500000
510.024597	154.340000
510.118256	154.020000
510.211975	153.640000
510.305695	153.340000
510.399353	153.600000
510.493042	154.260000
510.586700	154.740000
510.680420	155.640000
510.774078	155.380000
510.867798	155.260000
510.961426	154.700000
511.055145	154.660000
511.148804	154.200000
511.242523	155.280000
511.336151	155.240000
511.429871	155.640000
511.523529	155.080000
511.617249	154.600000
511.710876	154.020000
511.804596	153.780000
511.898254	153.400000
511.991974	154.040000
512.085632	154.060000
512.179321	154.080000
512.272949	154.420000
512.366699	155.000000
512.460327	154.740000
512.554077	155.880000
512.647766	155.780000
512.741394	155.360000
512.835144	155.720000
512.928772	155.400000
513.022461	154.960000
513.116150	154.680000
513.209839	155.640000
513.303467	154.460000
513.397217	154.160000
513.490845	153.620000
513.584595	153.480000
513.678223	152.720000
513.771912	152.620000
513.865601	152.920000
513.959290	152.780000
514.052917	153.060000
514.146667	153.700000
514.240295	154.180000
514.333984	154.540000
514.427673	154.380000
514.521362	154.860000
514.614990	154.060000
514.708740	154.460000
514.802368	154.700000
514.896057	155.320000
514.989746	156.020000
515.083435	155.740000
515.177124	155.680000
515.270752	155.240000
515.364502	155.120000
515.458130	154.760000
515.551819	154.660000
515.645508	154.360000
515.739197	154.300000
515.832825	154.340000
515.926575	153.720000
516.020203	154.440000
516.113892	155.020000
516.207520	154.820000
516.301270	154.860000
516.394897	154.920000
516.488586	155.140000
516.582275	154.940000
516.675964	154.600000
516.769592	154.540000
516.863281	155.140000
516.956970	155.160000
517.050659	154.800000
517.144287	155.340000
517.238037	155.160000
517.331665	154.280000
517.425354	153.560000
517.519043	153.160000
517.612732	153.560000
517.706421	153.760000
517.800049	153.780000
517.893738	153.620000
517.987427	153.760000
518.081116	153.220000
518.174744	152.760000
518.268433	153.340000
518.362122	154.500000
518.455811	154.580000
518.549438	155.360000
518.643127	156.340000
518.736816	156.060000
518.830505	155.140000
518.924133	155.080000
519.017822	155.240000
519.111511	154.820000
519.205200	155.240000
519.298828	155.280000
519.392517	155.260000
519.486206	154.960000
519.579895	155.060000
519.673523	154.620000
519.767212	154.880000
519.860901	155.600000
519.954590	155.060000
520.048279	154.480000
520.141907	154.440000
520.235596	155.280000
520.329224	155.100000
520.422974	155.180000
520.516602	155.660000
520.610291	155.120000
520.703918	154.580000
520.797607	154.180000
520.891296	154.120000
520.984985	153.820000
521.078613	155.140000
521.172302	154.560000
521.265930	155.300000
521.359680	155.900000
521.453308	156.140000
521.546997	155.320000
521.640625	155.680000
521.734314	154.700000
521.827942	154.340000
521.921692	154.380000
522.015320	154.620000
522.109009	154.340000
522.202698	154.560000
522.296326	154.460000
522.390015	154.900000
522.483704	155.020000
522.577393	155.020000
522.671021	154.920000
522.764709	154.560000
522.858337	154.280000
522.952026	154.080000
523.045654	154.880000
523.139404	155.440000
523.233032	155.740000
523.326721	155.560000
523.420349	155.300000
523.514038	154.120000
523.607666	154.300000
523.701355	153.580000
523.795044	153.460000
523.888733	153.820000
523.982361	154.160000
524.076050	153.940000
524.169678	155.060000
524.263367	154.580000
524.356995	154.380000
524.450684	154.680000
524.544373	154.120000
524.638062	153.620000
524.731750	154.460000
524.825378	154.660000
524.919067	154.180000
525.012695	154.520000
525.106384	154.440000
525.200012	154.380000
525.293701	153.920000
525.387329	154.580000
525.481018	154.400000
525.574646	154.580000
525.668396	154.180000
525.762024	154.740000
525.855713	154.720000
525.949341	154.600000
526.043030	154.900000
526.136658	154.960000
526.230347	154.580000
526.323975	154.080000
526.417664	154.080000
526.511292	153.840000
526.604980	153.780000
526.698608	153.700000
526.792297	153.780000
526.885925	154.000000
526.979614	154.260000
527.073303	154.100000
527.166931	154.400000
527.260620	154.620000
527.354309	154.780000
527.447998	154.460000
527.541626	154.700000
527.635315	154.500000
527.728943	155.000000
527.822632	155.240000
527.916260	155.420000
528.009949	155.400000
528.103577	155.240000
528.197266	154.260000
528.290894	154.140000
528.384583	153.980000
528.478210	153.740000
528.571899	153.960000
528.665527	154.520000
528.759216	154.380000
528.852844	154.800000
528.946533	155.160000
529.040161	155.000000
529.133850	154.720000
529.227478	154.880000
529.321167	154.880000
529.414856	155.100000
529.508484	155.760000
529.602173	155.380000
529.695801	155.180000
529.789490	155.260000
529.883057	154.920000
529.976746	154.980000
530.070374	155.880000
530.164062	155.820000
530.257690	155.800000
530.351379	155.900000
530.445007	155.380000
530.538696	154.480000
530.632324	154.900000
530.726013	154.700000
530.819641	154.580000
530.913330	154.800000
531.006958	155.100000
531.100647	154.960000
531.194275	154.720000
531.287964	154.500000
531.381592	154.200000
531.475220	154.140000
531.568848	153.700000
531.662537	153.480000
531.756226	154.080000
531.849854	153.900000
531.943542	154.060000
532.037170	153.540000
532.130859	153.960000
532.224487	153.580000
532.318176	153.500000
532.411804	153.740000
532.505432	154.400000
532.599060	154.260000
532.692749	154.220000
532.786377	154.600000
532.880066	154.100000
532.973694	153.540000
533.067383	153.480000
533.161011	153.380000
533.254639	153.180000
533.348267	153.040000
533.441956	153.640000
533.535583	153.340000
533.629272	153.560000
533.722900	153.200000
533.816589	153.400000
533.910156	153.620000
534.003845	153.480000
534.097534	153.720000
534.191162	154.680000
534.284851	154.880000
534.378479	154.360000
534.472107	154.660000
534.565735	154.420000
534.659424	154.260000
534.753052	154.300000
534.846741	154.320000
534.940369	155.040000
535.033997	154.660000
535.127625	154.460000
535.221313	155.040000
535.314941	155.340000
535.408630	154.260000
535.502197	155.140000
535.595886	154.920000
535.689514	154.400000
535.783203	154.680000
535.876831	155.160000
535.970459	154.700000
536.064087	154.440000
536.157776	154.220000
536.251404	153.880000
536.345093	153.580000
536.438721	153.700000
536.532349	154.040000
536.626038	154.020000
536.719666	154.300000
536.813293	154.500000
536.906921	154.280000
537.000610	154.420000
537.094238	154.500000
537.187866	154.140000
537.281494	153.780000
537.375183	154.120000
537.468811	154.040000
537.562439	153.880000
537.656067	154.260000
537.749756	154.500000
537.843384	154.600000
537.937012	155.080000
538.030640	154.900000
538.124329	154.560000
538.217896	154.880000
538.311584	154.560000
538.405212	153.820000
538.498901	154.300000
538.592468	154.880000
538.686157	154.340000
538.779785	154.040000
538.873413	154.280000
538.967102	153.620000
539.060730	152.820000
539.154358	153.100000
539.247986	153.740000
539.341675	153.880000
539.435242	154.080000
539.528931	154.440000
539.622559	154.200000
539.716187	154.320000
539.809814	154.180000
539.903503	154.400000
539.997070	154.240000
540.090759	154.400000
540.184387	153.920000
540.278015	154.300000
540.371643	154.840000
540.465332	155.060000
540.558899	155.040000
540.652588	155.040000
540.746216	154.600000
540.839844	154.540000
540.933472	154.540000
541.027100	154.620000
541.120728	154.980000
541.214417	155.180000
541.308044	155.440000
541.401672	154.860000
541.495300	154.600000
541.588928	154.220000
541.682617	154.020000
541.776184	153.480000
541.869873	154.140000
541.963440	154.340000
542.057129	154.000000
542.150757	154.120000
542.244385	153.520000
542.338013	152.840000
542.431641	152.840000
542.525269	153.080000
542.618958	153.360000
542.712524	154.100000
542.806213	153.960000
542.899780	154.280000
542.993469	154.220000
543.087036	153.760000
543.180725	153.200000
543.274292	154.140000
543.367981	153.960000
543.461548	154.360000
543.555237	154.220000
543.648926	154.800000
543.742493	155.180000
543.836182	155.360000
543.929749	154.960000
544.023437	155.120000
544.117004	155.120000
544.210693	154.740000
544.304260	154.500000
544.397949	154.440000
544.491516	154.520000
544.585205	154.220000
544.678772	153.640000
544.772461	154.340000
544.866028	154.600000
544.959717	154.820000
545.053284	154.660000
545.146973	155.220000
545.240540	155.100000
545.334229	155.380000
545.427795	155.300000
545.521423	155.560000
545.615051	155.180000
545.708679	155.060000
545.802307	154.900000
545.895935	154.980000
545.989624	155.940000
546.083191	155.900000
546.176880	155.760000
546.270447	155.280000
546.364136	155.780000
546.457703	154.880000
546.551331	155.000000
546.644958	155.100000
546.738586	155.380000
546.832214	154.820000
546.925842	154.800000
547.019409	154.980000
547.113098	154.460000
547.206665	154.360000
547.300354	154.160000
547.393921	154.260000
547.487549	154.640000
547.581177	154.760000
547.674805	154.620000
547.768433	154.640000
547.862061	154.480000
547.955627	153.420000
548.049316	154.000000
548.142883	154.480000
548.236572	154.680000
548.330139	155.000000
548.423767	155.520000
548.517456	155.260000
548.611023	155.360000
548.704651	155.100000
548.798279	154.980000
548.891907	155.480000
548.985474	155.080000
549.079163	155.280000
549.172729	155.320000
549.266357	154.520000
549.359985	154.260000
549.453613	154.060000
549.547180	153.440000
549.640869	153.820000
549.734436	154.340000
549.828064	154.700000
549.921631	154.840000
550.015320	154.700000
550.108887	154.720000
550.202515	154.460000
550.296143	153.940000
550.389771	154.040000
550.483337	154.420000
550.576965	154.100000
550.670593	154.680000
550.764221	154.680000
550.857849	154.580000
550.951477	154.120000
551.045105	153.660000
551.138672	153.780000
551.232300	153.300000
551.325928	153.840000
551.419556	154.260000
551.513123	154.940000
551.606750	154.240000
551.700378	154.540000
551.794006	154.240000
551.887573	154.040000
551.981201	154.260000
552.074768	154.520000
552.168457	154.320000
552.262024	155.180000
552.355652	155.300000
552.449219	155.740000
552.542847	155.720000
552.636475	155.420000
552.730103	154.140000
552.823669	153.800000
552.917297	152.940000
553.010864	152.920000
553.104553	153.680000
553.198181	154.040000
553.291748	154.740000
553.385376	155.160000
553.478943	155.140000
553.572571	154.920000
553.666199	155.560000
553.759827	155.000000
553.853394	154.400000
553.947021	154.540000
554.040588	154.460000
554.134216	154.040000
554.227783	154.820000
554.321411	155.900000
554.415039	155.360000
554.508667	155.480000
554.602234	155.660000
554.695862	155.020000
554.789429	154.420000
554.883057	154.560000
554.976624	154.520000
555.070251	154.180000
555.163818	154.040000
555.257507	154.220000
555.351074	154.780000
555.444702	156.040000
555.538330	155.680000
555.631897	156.060000
555.725525	155.580000
555.819092	155.160000
555.912720	153.720000
556.006287	154.500000
556.099915	154.340000
556.193481	154.720000
556.287109	154.960000
556.380676	155.060000
556.474304	154.840000
556.567871	155.100000
556.661499	154.460000
556.755066	154.520000
556.848694	154.620000
556.942261	154.460000
557.035889	154.580000
557.129517	154.860000
557.223145	155.280000
557.316711	155.300000
557.410339	155.300000
557.503906	154.980000
557.597473	155.660000
557.691040	155.260000
557.784668	155.640000
557.878296	155.760000
557.971863	155.840000
558.065491	155.480000
558.159058	155.200000
558.252686	155.620000
558.346252	156.160000
558.439880	155.600000
558.533447	155.000000
558.627075	154.680000
558.720642	153.860000
558.814270	153.360000
558.907837	153.620000
559.001465	153.840000
559.095032	154.580000
559.188660	154.860000
559.282227	154.620000
559.375854	155.180000
559.469360	154.860000
559.562988	155.320000
559.656555	155.140000
559.750183	155.440000
559.843750	155.340000
559.937378	155.660000
560.030945	155.140000
560.124573	0.000000
560.218140	0.000000
560.311707	0.000000
560.405334	0.000000
560.498901	0.000000
560.592529	0.000000
560.686096	0.000000
560.779724	0.000000
560.873291	0.000000
560.966858	0.000000
561.060425	0.000000
561.154053	0.000000
561.247620	0.000000
561.341248	0.000000
561.434814	0.000000
561.528381	0.000000
561.621948	0.000000
561.715576	0.000000
561.809143	0.000000
561.902771	0.000000
561.996277	0.000000
562.089905	0.000000
562.183472	0.000000
562.277100	0.000000
