Model Number: SPM-002-B   
Serial Number: 70087108
Firmware Version: 004.15.4
Exposure Time: 100000.000000us
Data Taken on: 15-01-2021 17:51:18.623
Wavelength	Amplitude
221.570786	0.000000
221.663406	0.000000
221.756027	0.000000
221.848648	0.000000
221.941269	0.000000
222.033905	0.000000
222.126526	0.000000
222.219162	0.000000
222.311798	0.000000
222.404419	0.000000
222.497055	0.000000
222.589676	0.000000
222.682312	0.000000
222.774933	0.000000
222.867569	0.000000
222.960205	0.000000
223.052841	0.000000
223.145462	0.000000
223.238098	0.000000
223.330734	0.000000
223.423386	0.000000
223.516022	0.000000
223.608658	0.000000
223.701309	0.000000
223.793945	0.000000
223.886581	0.000000
223.979218	0.000000
224.071869	0.000000
224.164505	0.000000
224.257156	0.000000
224.349792	0.000000
224.442444	0.000000
224.535095	0.000000
224.627747	0.000000
224.720398	0.000000
224.813034	0.000000
224.905685	0.000000
224.998337	154.420000
225.090988	154.000000
225.183640	154.440000
225.276291	154.300000
225.368942	154.440000
225.461594	154.940000
225.554245	155.480000
225.646912	154.980000
225.739578	155.700000
225.832230	156.240000
225.924896	155.300000
226.017548	155.440000
226.110199	156.480000
226.202866	155.460000
226.295532	155.000000
226.388184	155.180000
226.480850	154.420000
226.573517	153.680000
226.666168	154.140000
226.758835	154.620000
226.851501	155.140000
226.944183	155.520000
227.036850	155.200000
227.129517	155.320000
227.222183	155.480000
227.314850	155.340000
227.407516	155.660000
227.500198	156.720000
227.592865	156.060000
227.685532	155.420000
227.778214	155.200000
227.870880	155.480000
227.963562	155.280000
228.056229	155.780000
228.148926	156.060000
228.241592	156.980000
228.334274	156.080000
228.426956	155.560000
228.519638	155.820000
228.612305	155.040000
228.704987	154.600000
228.797668	155.080000
228.890350	154.820000
228.983032	154.000000
229.075714	155.020000
229.168396	154.700000
229.261108	154.040000
229.353790	154.320000
229.446472	154.800000
229.539169	154.700000
229.631851	154.340000
229.724533	154.980000
229.817230	155.020000
229.909912	156.060000
230.002609	155.980000
230.095306	156.000000
230.187988	156.060000
230.280685	156.200000
230.373383	154.680000
230.466095	154.300000
230.558792	154.840000
230.651474	154.460000
230.744171	154.160000
230.836868	154.360000
230.929581	154.840000
231.022278	154.760000
231.114975	155.000000
231.207672	155.160000
231.300369	155.460000
231.393082	155.480000
231.485779	155.140000
231.578506	154.860000
231.671204	155.120000
231.763916	155.000000
231.856613	154.860000
231.949326	155.060000
232.042023	155.140000
232.134735	154.900000
232.227448	154.620000
232.320160	154.780000
232.412872	154.980000
232.505585	155.880000
232.598297	156.320000
232.691010	156.480000
232.783722	155.900000
232.876450	156.660000
232.969162	155.680000
233.061874	154.760000
233.154587	154.540000
233.247314	155.220000
233.340027	154.140000
233.432739	154.920000
233.525467	155.280000
233.618179	155.760000
233.710907	154.940000
233.803635	155.140000
233.896347	154.420000
233.989090	155.260000
234.081818	155.180000
234.174545	155.800000
234.267258	155.560000
234.359985	155.800000
234.452713	155.220000
234.545441	155.020000
234.638168	154.740000
234.730896	155.220000
234.823639	155.300000
234.916367	155.760000
235.009094	155.620000
235.101822	155.580000
235.194580	155.620000
235.287308	155.480000
235.380051	154.680000
235.472778	155.320000
235.565521	155.760000
235.658249	155.380000
235.750992	155.580000
235.843719	155.560000
235.936462	155.340000
236.029205	155.120000
236.121948	154.600000
236.214691	154.980000
236.307449	155.940000
236.400192	155.800000
236.492935	155.320000
236.585678	155.680000
236.678421	155.380000
236.771164	154.940000
236.863907	155.400000
236.956665	155.960000
237.049408	157.840000
237.142151	157.400000
237.234909	158.420000
237.327652	158.140000
237.420410	157.800000
237.513153	156.440000
237.605927	156.620000
237.698669	155.260000
237.791428	154.620000
237.884186	155.160000
237.976944	154.820000
238.069702	154.880000
238.162445	154.580000
238.255203	154.960000
238.347961	155.060000
238.440720	155.060000
238.533478	155.120000
238.626266	155.140000
238.719025	155.500000
238.811783	155.280000
238.904541	155.320000
238.997314	155.020000
239.090073	154.620000
239.182831	154.920000
239.275604	155.680000
239.368362	155.760000
239.461136	156.140000
239.553909	156.400000
239.646667	155.900000
239.739441	155.500000
239.832214	155.660000
239.925003	155.740000
240.017761	156.800000
240.110535	157.360000
240.203308	156.700000
240.296082	156.760000
240.388855	156.740000
240.481628	156.720000
240.574417	156.760000
240.667191	156.940000
240.759964	156.620000
240.852737	156.620000
240.945526	155.680000
241.038315	154.880000
241.131088	154.980000
241.223877	155.060000
241.316650	154.700000
241.409439	155.540000
241.502228	155.600000
241.595001	156.120000
241.687790	156.060000
241.780579	156.140000
241.873367	156.200000
241.966141	156.500000
242.058929	155.480000
242.151718	155.860000
242.244507	156.500000
242.337311	155.780000
242.430099	156.400000
242.522903	157.040000
242.615692	156.560000
242.708481	156.100000
242.801270	156.580000
242.894073	155.860000
242.986862	155.860000
243.079651	156.380000
243.172455	155.900000
243.265244	155.600000
243.358063	155.320000
243.450867	155.340000
243.543655	155.240000
243.636459	155.720000
243.729263	156.260000
243.822067	156.600000
243.914856	157.080000
244.007660	156.900000
244.100464	156.760000
244.193268	156.300000
244.286072	155.940000
244.378876	155.220000
244.471680	154.740000
244.564499	154.940000
244.657318	155.820000
244.750122	156.380000
244.842926	155.880000
244.935745	156.660000
245.028549	156.360000
245.121368	155.440000
245.214172	155.260000
245.306992	156.240000
245.399796	155.440000
245.492615	155.780000
245.585434	155.560000
245.678253	155.720000
245.771072	155.380000
245.863892	156.100000
245.956711	156.060000
246.049530	156.160000
246.142349	155.300000
246.235168	155.260000
246.327988	155.680000
246.420807	155.700000
246.513626	156.000000
246.606445	156.320000
246.699280	155.960000
246.792099	155.400000
246.884918	154.840000
246.977753	154.440000
247.070587	154.560000
247.163422	154.740000
247.256241	154.900000
247.349075	155.240000
247.441895	155.320000
247.534729	155.540000
247.627563	155.360000
247.720383	155.800000
247.813217	155.760000
247.906052	155.700000
247.998886	155.520000
248.091736	155.700000
248.184570	154.940000
248.277405	154.900000
248.370239	155.660000
248.463074	156.600000
248.555908	156.520000
248.648743	156.440000
248.741592	156.800000
248.834427	156.260000
248.927261	155.040000
249.020111	155.480000
249.112946	156.320000
249.205795	155.720000
249.298630	155.760000
249.391495	155.920000
249.484344	155.520000
249.577179	154.960000
249.670029	155.400000
249.762878	155.780000
249.855728	156.140000
249.948563	156.240000
250.041412	155.640000
250.134262	155.700000
250.227112	155.920000
250.319962	156.040000
250.412827	156.060000
250.505692	156.060000
250.598541	156.000000
250.691391	155.360000
250.784241	155.180000
250.877106	155.400000
250.969955	155.260000
251.062805	155.500000
251.155670	155.900000
251.248520	155.320000
251.341385	155.420000
251.434235	155.700000
251.527100	155.400000
251.619965	155.020000
251.712814	156.020000
251.805695	155.860000
251.898560	156.080000
251.991425	156.320000
252.084290	156.440000
252.177155	155.480000
252.270020	155.040000
252.362885	154.900000
252.455750	154.760000
252.548615	154.500000
252.641479	155.100000
252.734360	155.180000
252.827240	155.060000
252.920105	155.020000
253.012970	154.980000
253.105850	154.600000
253.198715	154.480000
253.291595	154.680000
253.384460	154.020000
253.477341	154.040000
253.570221	154.660000
253.663086	154.320000
253.755966	155.000000
253.848846	155.600000
253.941727	155.980000
254.034592	155.280000
254.127472	155.180000
254.220367	155.100000
254.313248	155.120000
254.406128	154.700000
254.499008	155.100000
254.591904	156.100000
254.684784	156.140000
254.777664	156.120000
254.870544	156.100000
254.963440	155.900000
255.056335	155.780000
255.149216	155.440000
255.242111	155.800000
255.334991	156.320000
255.427887	156.300000
255.520767	156.160000
255.613663	156.300000
255.706558	155.580000
255.799438	154.880000
255.892334	154.820000
255.985229	154.800000
256.078125	154.440000
256.171021	155.060000
256.263916	155.820000
256.356812	156.120000
256.449707	156.060000
256.542603	155.700000
256.635498	155.760000
256.728394	155.200000
256.821289	154.820000
256.914215	155.280000
257.007080	155.580000
257.100006	155.780000
257.192932	156.260000
257.285828	156.480000
257.378723	155.680000
257.471619	155.600000
257.564545	154.660000
257.657440	154.560000
257.750336	155.340000
257.843262	155.280000
257.936157	156.600000
258.029053	157.160000
258.121979	157.100000
258.214874	156.400000
258.307800	156.500000
258.400696	155.080000
258.493622	155.200000
258.586517	154.300000
258.679443	154.400000
258.772339	154.000000
258.865265	154.060000
258.958160	153.820000
259.051086	155.260000
259.144012	154.880000
259.236938	156.040000
259.329834	156.320000
259.422791	156.060000
259.515717	154.940000
259.608612	154.860000
259.701538	154.400000
259.794464	154.280000
259.887390	154.440000
259.980316	154.380000
260.073212	154.420000
260.166138	153.620000
260.259064	153.820000
260.351990	154.340000
260.444916	154.780000
260.537842	155.120000
260.630768	156.140000
260.723694	155.960000
260.816620	155.440000
260.909546	155.180000
261.002472	154.880000
261.095398	154.460000
261.188354	154.380000
261.281281	153.960000
261.374207	154.120000
261.467133	154.980000
261.560089	155.300000
261.653015	155.140000
261.745972	156.200000
261.838867	156.380000
261.931824	156.080000
262.024780	155.660000
262.117706	155.860000
262.210663	155.780000
262.303589	155.680000
262.396515	155.600000
262.489471	156.440000
262.582397	156.340000
262.675354	155.560000
262.768280	155.700000
262.861237	155.680000
262.954163	155.280000
263.047119	155.380000
263.140045	155.400000
263.233002	155.580000
263.325958	155.240000
263.418884	154.980000
263.511841	154.920000
263.604797	154.980000
263.697723	154.620000
263.790680	154.920000
263.883636	155.240000
263.976593	155.260000
264.069550	155.480000
264.162476	155.420000
264.255463	155.220000
264.348419	154.980000
264.441376	155.200000
264.534332	154.540000
264.627289	154.780000
264.720245	155.420000
264.813202	154.920000
264.906158	155.140000
264.999115	155.960000
265.092072	155.680000
265.185028	155.820000
265.277985	156.500000
265.370941	156.220000
265.463898	155.780000
265.556854	155.580000
265.649811	154.580000
265.742798	154.300000
265.835754	154.420000
265.928711	155.120000
266.021667	155.360000
266.114655	155.680000
266.207611	156.000000
266.300568	155.340000
266.393585	154.820000
266.486511	155.240000
266.579498	154.580000
266.672485	154.180000
266.765442	154.140000
266.858429	154.820000
266.951385	154.380000
267.044342	154.740000
267.137329	154.780000
267.230316	155.000000
267.323273	154.020000
267.416260	154.360000
267.509216	154.380000
267.602203	154.340000
267.695160	154.880000
267.788147	155.100000
267.881134	154.460000
267.974091	154.760000
268.067078	154.620000
268.160065	154.500000
268.253052	154.520000
268.346008	155.060000
268.438995	154.680000
268.531982	155.060000
268.624969	154.660000
268.717987	155.080000
268.810944	154.680000
268.903961	155.100000
268.996948	154.560000
269.089905	155.500000
269.182892	155.400000
269.275879	156.000000
269.368866	155.160000
269.461853	155.780000
269.554871	155.400000
269.647858	155.420000
269.740845	155.640000
269.833832	156.620000
269.926819	155.960000
270.019806	155.820000
270.112793	155.440000
270.205811	155.220000
270.298798	154.880000
270.391785	155.620000
270.484772	155.240000
270.577789	155.260000
270.670776	154.720000
270.763763	154.560000
270.856750	154.280000
270.949768	154.260000
271.042786	154.440000
271.135773	154.780000
271.228790	155.200000
271.321808	155.040000
271.414795	154.540000
271.507782	154.200000
271.600800	153.960000
271.693817	153.860000
271.786804	154.260000
271.879822	154.980000
271.972809	155.120000
272.065826	155.540000
272.158844	155.040000
272.251831	156.000000
272.344849	156.080000
272.437866	155.880000
272.530853	155.700000
272.623871	156.360000
272.716888	154.480000
272.809906	154.680000
272.902893	154.680000
272.995911	154.200000
273.088928	153.840000
273.181946	154.520000
273.274963	154.040000
273.367981	154.040000
273.460999	154.600000
273.554047	155.120000
273.647003	155.900000
273.740051	156.260000
273.833069	156.740000
273.926086	156.620000
274.019135	156.060000
274.112152	155.460000
274.205170	155.440000
274.298187	155.600000
274.391205	155.380000
274.484222	155.700000
274.577240	155.820000
274.670258	155.600000
274.763306	155.220000
274.856323	155.440000
274.949341	155.260000
275.042358	155.640000
275.135406	155.500000
275.228424	155.600000
275.321442	155.660000
275.414490	155.540000
275.507507	155.700000
275.600525	156.200000
275.693573	156.020000
275.786591	155.560000
275.879669	155.520000
275.972656	154.740000
276.065735	154.480000
276.158752	155.080000
276.251801	155.880000
276.344818	156.260000
276.437866	156.500000
276.530884	156.280000
276.623932	155.320000
276.716980	155.400000
276.809998	155.220000
276.903046	154.920000
276.996094	155.820000
277.089111	156.840000
277.182159	156.980000
277.275208	156.840000
277.368256	157.240000
277.461304	156.860000
277.554321	156.120000
277.647369	156.040000
277.740417	156.160000
277.833466	156.040000
277.926514	155.760000
278.019562	156.460000
278.112610	155.660000
278.205688	155.620000
278.298706	155.540000
278.391785	155.460000
278.484833	154.600000
278.577881	154.900000
278.670929	155.200000
278.763977	155.360000
278.857025	155.460000
278.950073	155.880000
279.043121	155.520000
279.136169	155.420000
279.229248	154.840000
279.322296	155.360000
279.415344	154.960000
279.508392	154.980000
279.601440	154.860000
279.694519	155.220000
279.787567	154.540000
279.880615	154.240000
279.973694	154.160000
280.066742	154.040000
280.159790	154.040000
280.252869	154.040000
280.345917	154.700000
280.438995	154.840000
280.532074	154.940000
280.625122	155.540000
280.718201	156.380000
280.811279	155.960000
280.904327	155.880000
280.997406	156.060000
281.090454	155.460000
281.183533	154.580000
281.276581	154.800000
281.369659	154.560000
281.462738	154.700000
281.555786	155.140000
281.648865	155.360000
281.741943	155.500000
281.835022	156.260000
281.928070	155.700000
282.021149	155.140000
282.114227	155.080000
282.207306	154.760000
282.300385	155.100000
282.393433	155.240000
282.486511	155.180000
282.579590	155.500000
282.672668	156.200000
282.765747	155.360000
282.858856	155.120000
282.951904	155.380000
283.045013	155.460000
283.138062	155.440000
283.231171	155.640000
283.324249	156.280000
283.417328	156.080000
283.510406	155.480000
283.603485	155.180000
283.696564	155.240000
283.789642	154.800000
283.882751	154.860000
283.975830	155.640000
284.068909	155.480000
284.161987	156.200000
284.255066	156.080000
284.348175	156.020000
284.441254	155.580000
284.534332	155.920000
284.627441	155.000000
284.720520	154.720000
284.813599	154.820000
284.906708	154.860000
284.999786	154.100000
285.092896	153.980000
285.185974	155.240000
285.279053	154.880000
285.372192	154.800000
285.465240	155.680000
285.558380	155.560000
285.651459	154.680000
285.744568	155.760000
285.837677	155.440000
285.930756	155.320000
286.023865	155.880000
286.116943	155.680000
286.210052	155.200000
286.303162	155.160000
286.396240	154.860000
286.489349	154.820000
286.582458	155.380000
286.675568	155.040000
286.768646	155.300000
286.861755	155.620000
286.954865	156.100000
287.047974	155.580000
287.141083	155.480000
287.234161	155.200000
287.327271	154.960000
287.420380	155.120000
287.513519	154.960000
287.606598	155.260000
287.699738	155.540000
287.792816	155.600000
287.885956	155.140000
287.979034	155.200000
288.072174	155.120000
288.165283	155.060000
288.258392	155.060000
288.351501	154.420000
288.444611	154.660000
288.537720	155.060000
288.630859	154.700000
288.723969	154.920000
288.817078	155.660000
288.910187	155.760000
289.003296	154.960000
289.096436	154.980000
289.189545	154.640000
289.282654	153.780000
289.375763	154.300000
289.468903	155.080000
289.562012	155.500000
289.655121	155.580000
289.748260	156.040000
289.841400	155.940000
289.934509	155.700000
290.027649	155.700000
290.120728	155.740000
290.213898	155.840000
290.306976	155.160000
290.400146	155.280000
290.493256	155.080000
290.586395	155.040000
290.679535	155.220000
290.772644	155.320000
290.865784	154.580000
290.958893	154.540000
291.052032	154.480000
291.145172	154.780000
291.238281	154.460000
291.331421	154.620000
291.424561	155.120000
291.517670	155.240000
291.610809	154.820000
291.703949	154.940000
291.797089	155.200000
291.890228	154.440000
291.983337	154.200000
292.076477	153.980000
292.169617	154.660000
292.262756	154.420000
292.355927	154.700000
292.449036	154.280000
292.542206	154.320000
292.635315	154.060000
292.728485	154.680000
292.821625	154.200000
292.914764	155.740000
293.007904	155.960000
293.101044	155.840000
293.194183	155.640000
293.287323	156.200000
293.380463	155.340000
293.473602	155.160000
293.566742	155.360000
293.659882	155.860000
293.753021	155.980000
293.846191	155.780000
293.939331	155.640000
294.032471	155.460000
294.125610	154.840000
294.218781	155.340000
294.311920	155.740000
294.405060	155.800000
294.498230	155.700000
294.591370	155.800000
294.684540	154.720000
294.777679	154.200000
294.870850	154.620000
294.963959	154.660000
295.057159	154.420000
295.150299	155.080000
295.243469	155.060000
295.336609	154.540000
295.429779	154.660000
295.522919	155.300000
295.616089	155.060000
295.709229	155.920000
295.802399	156.220000
295.895569	156.140000
295.988708	155.580000
296.081879	155.860000
296.175018	154.900000
296.268188	154.680000
296.361359	154.840000
296.454529	154.860000
296.547668	154.520000
296.640839	154.920000
296.734009	154.800000
296.827179	154.880000
296.920319	155.180000
297.013519	155.200000
297.106659	155.640000
297.199860	155.560000
297.292999	155.420000
297.386200	155.180000
297.479309	154.980000
297.572510	154.360000
297.665680	154.280000
297.758850	154.260000
297.852020	154.020000
297.945190	154.160000
298.038361	154.160000
298.131531	155.440000
298.224701	155.300000
298.317871	155.180000
298.411072	154.640000
298.504242	154.480000
298.597412	153.600000
298.690582	153.800000
298.783752	153.900000
298.876923	154.680000
298.970093	154.700000
299.063293	155.260000
299.156464	155.540000
299.249634	156.080000
299.342834	156.220000
299.436005	156.680000
299.529205	156.320000
299.622345	156.360000
299.715576	155.380000
299.808716	154.780000
299.901917	154.600000
299.995117	154.740000
300.088287	154.680000
300.181488	154.940000
300.274658	155.000000
300.367828	154.920000
300.461029	154.660000
300.554199	155.000000
300.647400	155.300000
300.740601	155.860000
300.833771	155.800000
300.926971	156.200000
301.020142	155.360000
301.113342	155.200000
301.206512	155.240000
301.299713	155.540000
301.392914	155.100000
301.486084	155.440000
301.579285	155.600000
301.672516	155.800000
301.765686	155.380000
301.858887	155.460000
301.952057	155.600000
302.045288	155.360000
302.138458	155.160000
302.231659	155.120000
302.324860	154.880000
302.418060	154.460000
302.511261	154.580000
302.604462	154.580000
302.697662	154.640000
302.790863	154.720000
302.884064	154.400000
302.977264	154.640000
303.070465	154.480000
303.163666	155.160000
303.256866	155.480000
303.350067	155.860000
303.443268	155.960000
303.536469	156.360000
303.629669	155.820000
303.722870	155.720000
303.816071	155.480000
303.909271	154.860000
304.002472	153.960000
304.095673	153.720000
304.188934	153.060000
304.282104	154.180000
304.375336	154.480000
304.468506	154.620000
304.561768	154.580000
304.654968	155.260000
304.748169	154.400000
304.841370	154.260000
304.934601	154.520000
305.027802	154.520000
305.121002	154.080000
305.214233	154.220000
305.307434	154.520000
305.400665	155.320000
305.493866	154.960000
305.587097	155.360000
305.680298	154.960000
305.773499	155.320000
305.866730	154.820000
305.959930	155.520000
306.053162	155.560000
306.146393	155.520000
306.239594	154.800000
306.332825	154.700000
306.426025	155.260000
306.519287	154.900000
306.612488	155.140000
306.705719	155.140000
306.798920	155.100000
306.892181	154.100000
306.985352	153.500000
307.078613	153.040000
307.171844	153.620000
307.265045	153.120000
307.358276	153.100000
307.451508	154.040000
307.544739	154.660000
307.637970	153.640000
307.731201	153.740000
307.824402	154.620000
307.917633	154.740000
308.010864	154.860000
308.104095	156.100000
308.197327	156.460000
308.290558	156.280000
308.383789	155.680000
308.477020	155.440000
308.570251	154.340000
308.663483	153.840000
308.756714	153.680000
308.849976	154.040000
308.943176	154.320000
309.036438	154.440000
309.129639	154.560000
309.222900	154.460000
309.316101	154.140000
309.409393	153.460000
309.502625	153.480000
309.595856	153.640000
309.689087	153.380000
309.782318	153.540000
309.875580	154.160000
309.968811	154.500000
310.062042	154.100000
310.155273	154.200000
310.248535	154.540000
310.341766	154.240000
310.434998	153.760000
310.528259	153.900000
310.621490	154.340000
310.714722	153.640000
310.807983	153.760000
310.901215	154.000000
310.994476	154.240000
311.087708	153.680000
311.181000	154.420000
311.274200	154.020000
311.367462	154.080000
311.460693	153.720000
311.553986	154.560000
311.647186	154.780000
311.740479	155.800000
311.833710	155.780000
311.926971	156.080000
312.020203	155.300000
312.113464	154.640000
312.206726	153.620000
312.299957	154.180000
312.393219	154.940000
312.486481	155.340000
312.579712	155.500000
312.672974	155.900000
312.766235	155.760000
312.859497	155.260000
312.952759	154.780000
313.045990	155.240000
313.139252	154.640000
313.232513	154.580000
313.325775	154.460000
313.419037	154.420000
313.512299	153.580000
313.605530	154.580000
313.698822	154.680000
313.792053	154.820000
313.885345	154.480000
313.978577	154.800000
314.071869	154.020000
314.165131	153.840000
314.258392	154.140000
314.351654	154.880000
314.444916	154.340000
314.538177	155.260000
314.631439	155.740000
314.724701	155.240000
314.817993	154.680000
314.911255	155.100000
315.004517	154.220000
315.097778	153.840000
315.191040	154.500000
315.284302	155.300000
315.377594	155.500000
315.470856	155.880000
315.564117	155.300000
315.657379	154.620000
315.750671	154.040000
315.843933	154.360000
315.937195	153.780000
316.030518	153.920000
316.123749	153.940000
316.217041	154.880000
316.310303	154.660000
316.403595	155.120000
316.496857	155.420000
316.590149	155.640000
316.683411	154.740000
316.776703	154.360000
316.869965	154.460000
316.963257	154.380000
317.056519	153.560000
317.149811	153.360000
317.243073	153.600000
317.336365	153.720000
317.429626	154.120000
317.522919	155.020000
317.616180	155.280000
317.709473	154.940000
317.802765	154.480000
317.896027	154.120000
317.989319	154.360000
318.082611	154.240000
318.175873	154.380000
318.269165	154.700000
318.362488	154.720000
318.455750	154.240000
318.549042	154.900000
318.642303	155.420000
318.735626	155.280000
318.828888	155.380000
318.922211	155.280000
319.015472	155.720000
319.108765	154.700000
319.202057	154.520000
319.295349	154.440000
319.388641	154.480000
319.481934	153.500000
319.575226	153.840000
319.668518	154.240000
319.761810	154.500000
319.855103	154.600000
319.948395	154.900000
320.041687	155.100000
320.134979	154.740000
320.228271	154.500000
320.321564	154.300000
320.414856	154.200000
320.508148	153.720000
320.601440	153.960000
320.694763	153.920000
320.788025	154.600000
320.881348	154.540000
320.974640	154.760000
321.067963	153.860000
321.161224	154.040000
321.254547	153.260000
321.347839	153.860000
321.441162	153.780000
321.534454	154.460000
321.627747	153.940000
321.721069	154.860000
321.814362	154.540000
321.907654	154.780000
322.000946	154.700000
322.094269	155.760000
322.187561	155.340000
322.280884	155.740000
322.374176	155.800000
322.467468	156.180000
322.560791	155.620000
322.654083	155.800000
322.747406	155.900000
322.840698	156.060000
322.934021	156.440000
323.027344	156.840000
323.120636	156.360000
323.213959	155.880000
323.307251	155.220000
323.400574	154.640000
323.493866	153.920000
323.587219	153.960000
323.680511	154.300000
323.773834	154.780000
323.867157	154.860000
323.960449	155.260000
324.053772	155.100000
324.147095	154.780000
324.240387	155.280000
324.333710	155.180000
324.427032	155.160000
324.520355	155.160000
324.613647	154.960000
324.706970	154.460000
324.800293	154.580000
324.893616	154.700000
324.986938	155.120000
325.080231	155.160000
325.173553	155.560000
325.266876	155.980000
325.360199	155.640000
325.453522	155.340000
325.546875	155.200000
325.640167	155.040000
325.733521	155.060000
325.826813	155.720000
325.920166	155.380000
326.013489	155.220000
326.106812	154.640000
326.200134	153.920000
326.293457	153.140000
326.386780	153.660000
326.480103	153.560000
326.573425	153.820000
326.666748	154.180000
326.760071	154.540000
326.853424	154.580000
326.946747	154.600000
327.040070	155.060000
327.133392	154.780000
327.226715	154.280000
327.320068	153.760000
327.413391	154.460000
327.506714	153.860000
327.600037	153.900000
327.693390	154.080000
327.786713	154.100000
327.880066	153.780000
327.973358	154.520000
328.066742	155.040000
328.160034	155.280000
328.253418	155.820000
328.346710	155.580000
328.440063	155.080000
328.533417	154.420000
328.626740	154.840000
328.720093	154.740000
328.813416	154.820000
328.906769	154.940000
329.000092	155.420000
329.093445	154.980000
329.186768	154.540000
329.280121	155.100000
329.373444	155.240000
329.466797	155.420000
329.560120	155.520000
329.653473	155.900000
329.746796	155.320000
329.840149	155.100000
329.933502	154.520000
330.026825	154.360000
330.120178	154.240000
330.213562	154.020000
330.306854	154.080000
330.400238	154.240000
330.493561	153.900000
330.586945	154.680000
330.680237	155.160000
330.773621	154.960000
330.866974	154.940000
330.960327	155.760000
331.053680	155.240000
331.147003	155.340000
331.240356	155.860000
331.333710	156.240000
331.427063	155.540000
331.520416	155.500000
331.613770	155.100000
331.707123	155.120000
331.800476	155.040000
331.893829	155.980000
331.987152	155.840000
332.080505	155.880000
332.173859	155.540000
332.267212	155.160000
332.360565	154.440000
332.453918	154.280000
332.547333	154.380000
332.640656	154.280000
332.734039	154.560000
332.827362	154.600000
332.920746	154.940000
333.014069	155.140000
333.107452	155.740000
333.200806	155.740000
333.294159	155.760000
333.387543	155.280000
333.480896	154.600000
333.574249	153.780000
333.667603	153.520000
333.760956	153.800000
333.854340	153.700000
333.947693	154.220000
334.041046	154.900000
334.134430	155.200000
334.227783	154.780000
334.321136	155.000000
334.414520	154.520000
334.507874	154.420000
334.601227	154.540000
334.694611	154.440000
334.787964	154.620000
334.881348	155.200000
334.974701	155.240000
335.068085	154.740000
335.161438	155.120000
335.254822	155.080000
335.348175	154.840000
335.441559	154.240000
335.534943	154.940000
335.628296	154.560000
335.721680	154.480000
335.815033	154.580000
335.908417	154.860000
336.001770	154.600000
336.095154	154.500000
336.188538	154.220000
336.281891	153.800000
336.375275	153.500000
336.468658	153.220000
336.562012	153.460000
336.655396	153.700000
336.748779	154.320000
336.842133	154.820000
336.935516	155.180000
337.028900	154.780000
337.122284	154.700000
337.215637	154.760000
337.309021	154.420000
337.402435	154.000000
337.495789	154.060000
337.589203	154.140000
337.682526	153.840000
337.775940	154.060000
337.869324	154.340000
337.962708	154.260000
338.056091	154.560000
338.149475	154.140000
338.242859	154.220000
338.336243	153.720000
338.429626	154.040000
338.523010	154.060000
338.616394	154.200000
338.709778	154.000000
338.803162	154.380000
338.896545	154.680000
338.989929	154.400000
339.083313	154.640000
339.176697	154.720000
339.270081	154.440000
339.363464	154.740000
339.456848	155.260000
339.550232	154.620000
339.643616	154.380000
339.737030	154.640000
339.830383	154.020000
339.923828	153.960000
340.017181	154.540000
340.110596	154.840000
340.203949	154.820000
340.297363	154.500000
340.390778	154.300000
340.484161	154.460000
340.577545	154.460000
340.670959	154.600000
340.764343	154.900000
340.857727	155.100000
340.951111	154.500000
341.044525	154.740000
341.137909	154.120000
341.231293	153.960000
341.324707	153.520000
341.418091	154.520000
341.511505	154.420000
341.604889	155.020000
341.698303	155.060000
341.791687	155.220000
341.885071	154.400000
341.978485	153.900000
342.071899	154.100000
342.165283	154.300000
342.258698	154.400000
342.352081	155.040000
342.445496	155.900000
342.538879	155.740000
342.632324	155.540000
342.725708	155.440000
342.819122	154.940000
342.912506	154.080000
343.005920	153.800000
343.099335	154.780000
343.192719	154.600000
343.286133	154.900000
343.379547	155.500000
343.472931	155.820000
343.566345	154.840000
343.659760	155.080000
343.753143	154.680000
343.846558	154.400000
343.939972	153.940000
344.033386	154.480000
344.126770	154.220000
344.220184	154.520000
344.313599	154.720000
344.407043	154.880000
344.500427	154.600000
344.593872	155.220000
344.687225	155.020000
344.780670	154.720000
344.874054	154.920000
344.967499	155.360000
345.060913	155.120000
345.154327	154.940000
345.247742	154.800000
345.341156	154.520000
345.434570	154.040000
345.527985	154.000000
345.621399	154.220000
345.714813	154.020000
345.808228	154.360000
345.901642	154.000000
345.995056	153.660000
346.088470	154.080000
346.181885	154.380000
346.275299	154.080000
346.368713	154.040000
346.462128	153.920000
346.555573	153.660000
346.648987	154.120000
346.742401	153.940000
346.835815	154.620000
346.929260	154.440000
347.022644	154.200000
347.116119	153.840000
347.209503	154.320000
347.302948	155.040000
347.396362	155.620000
347.489807	155.920000
347.583221	156.620000
347.676636	156.140000
347.770050	154.840000
347.863495	154.480000
347.956909	154.360000
348.050323	153.640000
348.143768	153.880000
348.237183	153.740000
348.330597	154.100000
348.424042	154.180000
348.517456	154.540000
348.610901	154.720000
348.704315	155.100000
348.797760	154.560000
348.891174	154.320000
348.984619	153.720000
349.078033	154.020000
349.171448	154.660000
349.264923	154.700000
349.358337	154.560000
349.451782	154.940000
349.545197	154.220000
349.638641	153.400000
349.732086	153.120000
349.825500	153.700000
349.918945	153.520000
350.012390	154.240000
350.105804	155.100000
350.199249	155.600000
350.292664	156.060000
350.386108	156.200000
350.479553	156.140000
350.572968	155.700000
350.666412	155.740000
350.759857	155.120000
350.853302	155.380000
350.946716	154.780000
351.040161	154.680000
351.133606	154.620000
351.227081	154.220000
351.320465	154.720000
351.413940	155.120000
351.507355	155.480000
351.600830	155.840000
351.694244	155.800000
351.787720	155.180000
351.881104	155.360000
351.974579	155.040000
352.067993	155.620000
352.161469	156.120000
352.254883	155.740000
352.348358	155.260000
352.441803	155.240000
352.535248	154.500000
352.628693	154.680000
352.722137	154.620000
352.815582	154.960000
352.909027	155.300000
353.002472	155.320000
353.095917	155.140000
353.189362	155.560000
353.282806	155.460000
353.376251	154.800000
353.469696	154.240000
353.563141	154.460000
353.656586	154.260000
353.750061	153.500000
353.843475	153.880000
353.936981	154.680000
354.030396	154.040000
354.123871	154.100000
354.217285	155.280000
354.310760	155.480000
354.404175	155.300000
354.497681	155.340000
354.591095	155.200000
354.684570	154.360000
354.777985	153.960000
354.871490	153.580000
354.964935	154.200000
355.058380	154.400000
355.151855	154.300000
355.245300	154.700000
355.338745	155.080000
355.432220	154.980000
355.525665	154.520000
355.619110	155.400000
355.712585	155.080000
355.806030	154.720000
355.899475	154.020000
355.992950	154.800000
356.086426	154.800000
356.179871	154.800000
356.273346	155.040000
356.366791	155.380000
356.460266	155.160000
356.553711	154.460000
356.647186	154.620000
356.740631	154.560000
356.834106	154.200000
356.927551	154.360000
357.021027	154.560000
357.114471	154.560000
357.207947	154.480000
357.301422	154.960000
357.394867	154.920000
357.488342	155.120000
357.581818	155.180000
357.675262	155.300000
357.768738	155.120000
357.862213	154.220000
357.955658	154.460000
358.049133	154.200000
358.142609	154.640000
358.236053	154.560000
358.329529	155.280000
358.423035	155.260000
358.516449	154.860000
358.609955	155.100000
358.703400	156.020000
358.796906	155.920000
358.890350	155.200000
358.983826	156.300000
359.077271	155.260000
359.170776	154.640000
359.264221	154.500000
359.357727	154.960000
359.451172	154.520000
359.544647	154.940000
359.638123	154.880000
359.731598	155.420000
359.825073	155.780000
359.918549	155.860000
360.012024	156.180000
360.105499	155.780000
360.198975	155.500000
360.292450	155.100000
360.385925	154.820000
360.479401	154.100000
360.572876	154.520000
360.666351	154.740000
360.759857	154.560000
360.853302	154.660000
360.946808	154.420000
361.040253	154.460000
361.133759	153.840000
361.227203	154.280000
361.320709	154.060000
361.414154	154.620000
361.507660	154.680000
361.601105	155.280000
361.694641	155.480000
361.788086	155.480000
361.881592	155.900000
361.975067	155.720000
362.068542	155.820000
362.162018	155.740000
362.255524	155.380000
362.348999	155.220000
362.442474	155.540000
362.535950	155.120000
362.629456	154.620000
362.722931	154.800000
362.816406	154.840000
362.909882	154.980000
363.003387	154.760000
363.096863	155.380000
363.190338	155.560000
363.283875	155.240000
363.377319	154.760000
363.470825	155.260000
363.564301	154.540000
363.657806	154.880000
363.751282	154.720000
363.844788	155.620000
363.938232	154.760000
364.031769	155.880000
364.125214	155.660000
364.218750	156.360000
364.312225	155.140000
364.405731	155.560000
364.499207	154.440000
364.592712	154.420000
364.686188	154.100000
364.779694	154.400000
364.873169	154.620000
364.966675	154.720000
365.060150	154.660000
365.153656	155.040000
365.247131	155.100000
365.340637	155.420000
365.434143	156.160000
365.527618	155.980000
365.621155	154.960000
365.714600	154.960000
365.808136	154.900000
365.901611	153.580000
365.995117	153.380000
366.088593	153.740000
366.182129	153.360000
366.275604	153.500000
366.369110	153.680000
366.462585	153.920000
366.556122	154.780000
366.649567	155.040000
366.743103	154.620000
366.836609	154.860000
366.930115	154.880000
367.023590	154.540000
367.117096	154.640000
367.210602	154.680000
367.304108	155.380000
367.397614	156.260000
367.491119	156.020000
367.584595	156.020000
367.678101	156.120000
367.771606	155.660000
367.865112	155.140000
367.958649	154.700000
368.052124	154.640000
368.145660	154.360000
368.239136	154.960000
368.332672	154.860000
368.426147	155.340000
368.519684	155.240000
368.613159	155.640000
368.706696	154.960000
368.800171	155.020000
368.893707	154.880000
368.987183	155.020000
369.080719	154.820000
369.174225	154.860000
369.267731	155.100000
369.361237	154.900000
369.454742	154.820000
369.548248	155.320000
369.641754	155.240000
369.735260	154.720000
369.828766	154.340000
369.922272	155.180000
370.015808	154.240000
370.109314	153.640000
370.202820	153.580000
370.296356	154.840000
370.389832	154.320000
370.483368	154.520000
370.576874	154.720000
370.670410	155.020000
370.763885	153.840000
370.857422	153.700000
370.950928	153.580000
371.044464	154.740000
371.137939	154.580000
371.231476	155.260000
371.324982	155.600000
371.418518	156.220000
371.512024	155.700000
371.605560	155.600000
371.699066	155.580000
371.792572	155.120000
371.886108	155.200000
371.979614	154.980000
372.073120	155.640000
372.166656	155.540000
372.260162	155.900000
372.353668	155.380000
372.447205	155.220000
372.540710	154.880000
372.634277	154.500000
372.727753	154.580000
372.821320	154.460000
372.914795	154.460000
373.008362	154.380000
373.101837	154.820000
373.195404	154.380000
373.288879	154.460000
373.382446	155.440000
373.475922	155.600000
373.569489	156.140000
373.662964	156.840000
373.756531	156.940000
373.850037	156.560000
373.943573	155.920000
374.037109	154.540000
374.130615	154.440000
374.224152	154.380000
374.317657	154.060000
374.411194	155.300000
374.504730	155.600000
374.598236	155.140000
374.691772	155.120000
374.785309	155.100000
374.878815	153.640000
374.972351	154.120000
375.065887	153.920000
375.159454	154.480000
375.252930	154.160000
375.346497	154.980000
375.440002	155.280000
375.533569	155.420000
375.627045	154.840000
375.720612	155.320000
375.814117	155.580000
375.907684	155.140000
376.001160	154.760000
376.094727	154.600000
376.188232	155.140000
376.281799	155.080000
376.375336	155.000000
376.468872	156.100000
376.562408	156.720000
376.655914	156.100000
376.749451	155.860000
376.842987	156.240000
376.936523	155.440000
377.030060	154.940000
377.123596	155.040000
377.217133	154.620000
377.310669	154.540000
377.404205	155.040000
377.497772	155.680000
377.591278	155.320000
377.684845	156.280000
377.778351	156.340000
377.871918	155.740000
377.965424	154.880000
378.058990	154.900000
378.152496	154.220000
378.246063	154.280000
378.339569	154.580000
378.433136	154.800000
378.526642	155.120000
378.620209	155.140000
378.713745	154.640000
378.807312	155.160000
378.900848	155.180000
378.994385	155.380000
379.087921	155.060000
379.181458	155.260000
379.274994	154.060000
379.368530	154.060000
379.462097	153.920000
379.555634	154.420000
379.649170	153.940000
379.742706	154.500000
379.836273	154.880000
379.929810	154.380000
380.023376	153.800000
380.116882	154.100000
380.210449	154.080000
380.303986	153.460000
380.397552	153.140000
380.491058	153.440000
380.584656	153.180000
380.678162	153.700000
380.771729	153.880000
380.865265	154.980000
380.958832	155.200000
381.052368	155.800000
381.145935	155.900000
381.239471	156.500000
381.333008	156.320000
381.426575	156.340000
381.520111	156.420000
381.613647	156.560000
381.707214	156.240000
381.800751	155.540000
381.894318	155.800000
381.987854	155.240000
382.081421	154.520000
382.174988	154.500000
382.268524	154.480000
382.362091	154.440000
382.455627	155.320000
382.549194	155.240000
382.642731	154.840000
382.736298	155.100000
382.829834	154.700000
382.923401	154.820000
383.016937	155.100000
383.110504	155.500000
383.204041	155.380000
383.297607	155.920000
383.391174	155.080000
383.484741	155.720000
383.578278	155.160000
383.671844	154.900000
383.765411	153.960000
383.858948	154.480000
383.952515	154.060000
384.046051	154.780000
384.139618	155.420000
384.233185	155.960000
384.326721	155.780000
384.420288	155.880000
384.513855	155.580000
384.607422	155.800000
384.700989	155.760000
384.794525	155.320000
384.888123	155.320000
384.981659	155.600000
385.075226	155.260000
385.168762	155.100000
385.262360	155.220000
385.355896	154.040000
385.449463	153.560000
385.542999	153.160000
385.636597	153.780000
385.730164	153.760000
385.823730	154.140000
385.917267	153.920000
386.010834	154.200000
386.104401	153.940000
386.197968	154.620000
386.291534	155.160000
386.385101	155.480000
386.478668	156.060000
386.572235	155.980000
386.665802	155.460000
386.759338	154.980000
386.852905	155.000000
386.946472	154.320000
387.040070	154.540000
387.133606	154.440000
387.227203	154.580000
387.320740	154.900000
387.414337	154.640000
387.507874	154.180000
387.601471	154.160000
387.695007	153.520000
387.788605	152.920000
387.882141	153.440000
387.975739	153.560000
388.069275	153.580000
388.162872	154.240000
388.256439	154.580000
388.350037	154.280000
388.443604	154.280000
388.537170	154.320000
388.630737	154.780000
388.724304	154.860000
388.817871	154.880000
388.911438	154.760000
389.005005	155.140000
389.098602	155.340000
389.192169	155.080000
389.285736	155.620000
389.379333	155.620000
389.472870	155.280000
389.566467	154.940000
389.660034	154.940000
389.753632	154.220000
389.847168	154.620000
389.940765	154.780000
390.034332	154.860000
390.127930	154.400000
390.221466	154.360000
390.315063	154.140000
390.408630	153.260000
390.502228	152.680000
390.595795	153.420000
390.689362	153.700000
390.782959	154.060000
390.876526	154.780000
390.970093	154.820000
391.063690	155.020000
391.157257	155.120000
391.250824	155.080000
391.344421	154.780000
391.437988	155.200000
391.531555	155.380000
391.625153	155.520000
391.718750	155.440000
391.812317	155.260000
391.905914	154.860000
391.999481	154.720000
392.093079	154.740000
392.186615	155.200000
392.280243	155.360000
392.373779	155.580000
392.467407	156.000000
392.560944	155.700000
392.654572	154.820000
392.748108	154.880000
392.841736	154.700000
392.935303	153.980000
393.028900	153.920000
393.122467	154.280000
393.216064	154.220000
393.309631	154.220000
393.403229	154.000000
393.496796	154.060000
393.590393	153.280000
393.683990	153.540000
393.777557	153.780000
393.871155	154.100000
393.964722	154.520000
394.058350	154.880000
394.151917	154.660000
394.245514	154.520000
394.339081	154.800000
394.432678	154.820000
394.526245	154.960000
394.619873	154.500000
394.713409	154.620000
394.807037	154.180000
394.900604	154.060000
394.994202	154.260000
395.087769	155.060000
395.181396	155.020000
395.274994	155.800000
395.368561	155.200000
395.462158	155.420000
395.555756	154.740000
395.649353	154.920000
395.742920	154.440000
395.836517	155.360000
395.930115	154.420000
396.023712	154.960000
396.117279	155.400000
396.210876	154.600000
396.304474	154.340000
396.398071	155.080000
396.491669	155.140000
396.585266	154.260000
396.678833	154.560000
396.772461	154.600000
396.866028	154.200000
396.959656	154.100000
397.053223	154.320000
397.146851	154.120000
397.240417	153.860000
397.334015	154.540000
397.427582	154.520000
397.521210	154.560000
397.614807	154.980000
397.708405	155.220000
397.802002	154.860000
397.895599	155.340000
397.989197	155.520000
398.082794	155.640000
398.176392	155.700000
398.269989	155.980000
398.363586	156.160000
398.457184	156.980000
398.550781	157.340000
398.644379	157.300000
398.737976	157.460000
398.831573	157.980000
398.925201	157.960000
399.018768	159.520000
399.112396	162.880000
399.205963	168.360000
399.299591	176.000000
399.393158	188.220000
399.486786	207.520000
399.580353	239.140000
399.673981	297.980000
399.767578	406.140000
399.861206	580.500000
399.954773	818.640000
400.048401	1080.700000
400.141998	1305.720000
400.235596	1430.700000
400.329193	1420.400000
400.422791	1275.700000
400.516418	1047.320000
400.610016	797.280000
400.703613	578.580000
400.797211	413.500000
400.890808	306.300000
400.984436	242.760000
401.078033	206.560000
401.171631	185.940000
401.265259	175.820000
401.358826	170.240000
401.452484	166.420000
401.546051	163.900000
401.639679	162.220000
401.733246	161.020000
401.826904	159.600000
401.920471	158.100000
402.014099	157.340000
402.107697	156.880000
402.201324	156.460000
402.294891	156.400000
402.388550	156.560000
402.482147	156.580000
402.575745	156.480000
402.669373	155.760000
402.762970	155.360000
402.856567	155.120000
402.950195	155.240000
403.043793	154.980000
403.137390	155.800000
403.231018	155.480000
403.324615	156.220000
403.418243	155.620000
403.511841	156.080000
403.605469	155.700000
403.699066	156.260000
403.792694	155.960000
403.886292	156.220000
403.979919	156.020000
404.073517	155.700000
404.167145	155.660000
404.260712	155.560000
404.354370	155.400000
404.447937	155.360000
404.541595	155.520000
404.635162	155.580000
404.728821	156.220000
404.822418	155.560000
404.916046	155.120000
405.009644	155.620000
405.103271	155.860000
405.196899	154.980000
405.290497	155.580000
405.384125	156.400000
405.477722	155.540000
405.571350	154.900000
405.664948	155.120000
405.758575	154.880000
405.852203	153.940000
405.945801	154.100000
406.039429	154.180000
406.133057	154.100000
406.226654	154.240000
406.320312	154.600000
406.413879	155.180000
406.507538	155.500000
406.601135	155.120000
406.694763	155.580000
406.788361	155.360000
406.882019	154.900000
406.975586	155.320000
407.069244	156.140000
407.162872	155.880000
407.256470	155.920000
407.350098	155.880000
407.443726	155.160000
407.537323	154.560000
407.630951	154.560000
407.724579	154.240000
407.818207	154.780000
407.911804	154.680000
408.005432	154.680000
408.099060	155.000000
408.192688	155.700000
408.286285	155.020000
408.379913	154.760000
408.473572	154.940000
408.567169	154.200000
408.660828	154.180000
408.754395	154.440000
408.848053	155.000000
408.941650	154.960000
409.035309	154.600000
409.128906	154.220000
409.222565	154.240000
409.316132	154.180000
409.409790	153.820000
409.503387	154.320000
409.597046	154.320000
409.690674	154.440000
409.784302	154.380000
409.877930	154.660000
409.971558	154.760000
410.065186	154.600000
410.158783	154.060000
410.252411	154.000000
410.346039	154.340000
410.439667	154.120000
410.533295	154.920000
410.626923	155.500000
410.720551	155.220000
410.814209	155.380000
410.907806	155.720000
411.001465	154.780000
411.095062	155.000000
411.188721	155.400000
411.282318	155.020000
411.375977	154.640000
411.469574	155.000000
411.563232	154.320000
411.656830	153.900000
411.750488	153.620000
411.844086	153.720000
411.937744	153.800000
412.031372	153.980000
412.125000	153.840000
412.218628	153.760000
412.312256	154.540000
412.405884	154.720000
412.499512	154.360000
412.593170	154.780000
412.686798	155.100000
412.780426	154.020000
412.874054	154.320000
412.967682	154.680000
413.061310	155.160000
413.154968	155.300000
413.248566	155.620000
413.342224	155.180000
413.435852	155.200000
413.529510	154.680000
413.623108	153.840000
413.716766	153.880000
413.810364	154.200000
413.904022	153.920000
413.997650	153.680000
414.091309	154.740000
414.184906	154.660000
414.278564	154.400000
414.372192	154.960000
414.465851	155.480000
414.559479	154.880000
414.653107	155.600000
414.746735	155.260000
414.840393	155.380000
414.934021	155.440000
415.027649	155.220000
415.121277	155.100000
415.214935	155.600000
415.308563	155.100000
415.402191	154.440000
415.495850	154.700000
415.589478	154.200000
415.683136	153.940000
415.776733	154.240000
415.870422	155.240000
415.964020	154.600000
416.057678	154.840000
416.151306	155.060000
416.244965	154.940000
416.338562	154.180000
416.432251	155.180000
416.525848	155.760000
416.619507	155.760000
416.713165	156.040000
416.806793	156.440000
416.900421	156.520000
416.994080	155.740000
417.087708	155.640000
417.181366	155.020000
417.274994	154.620000
417.368622	154.500000
417.462280	155.040000
417.555908	154.900000
417.649567	154.700000
417.743195	154.880000
417.836853	154.860000
417.930481	154.880000
418.024170	155.340000
418.117767	155.880000
418.211426	156.400000
418.305054	156.100000
418.398712	155.480000
418.492340	155.140000
418.585999	155.740000
418.679626	155.300000
418.773285	155.780000
418.866913	156.240000
418.960571	156.560000
419.054230	156.200000
419.147858	156.500000
419.241516	156.340000
419.335144	156.020000
419.428802	155.800000
419.522461	155.380000
419.616089	154.860000
419.709747	154.940000
419.803375	155.320000
419.897034	155.100000
419.990662	155.480000
420.084320	156.120000
420.177979	156.300000
420.271606	155.940000
420.365295	156.600000
420.458893	156.720000
420.552582	156.580000
420.646210	156.300000
420.739868	156.160000
420.833496	155.720000
420.927155	154.900000
421.020782	154.460000
421.114471	153.840000
421.208069	154.040000
421.301758	154.180000
421.395386	154.900000
421.489044	154.940000
421.582703	155.620000
421.676361	156.320000
421.769989	155.980000
421.863647	156.360000
421.957306	156.480000
422.050934	156.460000
422.144592	155.860000
422.238251	155.680000
422.331909	155.080000
422.425537	155.020000
422.519196	154.880000
422.612854	154.480000
422.706543	154.220000
422.800140	154.540000
422.893829	153.940000
422.987457	153.420000
423.081146	153.680000
423.174744	154.640000
423.268433	153.900000
423.362061	154.280000
423.455750	154.400000
423.549347	154.480000
423.643036	153.440000
423.736664	154.600000
423.830353	154.660000
423.924011	155.440000
424.017639	155.000000
424.111298	155.380000
424.204956	154.860000
424.298615	155.120000
424.392273	154.500000
424.485931	154.860000
424.579559	155.120000
424.673218	154.900000
424.766876	154.840000
424.860535	154.680000
424.954193	154.480000
425.047882	154.820000
425.141510	154.900000
425.235199	154.940000
425.328796	155.180000
425.422485	155.140000
425.516113	154.240000
425.609802	154.180000
425.703430	154.320000
425.797119	154.420000
425.890747	154.840000
425.984436	155.240000
426.078064	155.640000
426.171753	155.440000
426.265411	155.080000
426.359070	155.220000
426.452728	155.180000
426.546356	154.980000
426.640015	154.880000
426.733673	155.160000
426.827332	154.320000
426.920990	155.280000
427.014648	154.740000
427.108307	155.100000
427.201965	155.380000
427.295624	156.140000
427.389282	155.000000
427.482941	155.400000
427.576630	155.140000
427.670258	154.780000
427.763947	154.460000
427.857574	154.920000
427.951263	155.060000
428.044922	154.920000
428.138611	155.020000
428.232239	155.740000
428.325928	156.100000
428.419556	156.380000
428.513245	156.120000
428.606903	156.400000
428.700562	155.740000
428.794220	154.880000
428.887878	154.300000
428.981537	155.060000
429.075195	154.900000
429.168854	155.180000
429.262512	155.640000
429.356201	156.000000
429.449860	155.600000
429.543518	155.640000
429.637177	155.900000
429.730835	155.880000
429.824493	155.560000
429.918182	155.820000
430.011810	155.380000
430.105530	154.740000
430.199158	155.000000
430.292847	155.020000
430.386475	154.760000
430.480164	154.840000
430.573792	154.800000
430.667511	154.480000
430.761139	154.800000
430.854828	155.120000
430.948456	155.380000
431.042145	155.960000
431.135834	155.720000
431.229492	155.720000
431.323151	155.780000
431.416809	155.880000
431.510468	155.740000
431.604156	155.760000
431.697815	155.700000
431.791473	155.020000
431.885132	154.640000
431.978821	155.020000
432.072479	155.240000
432.166138	155.580000
432.259827	155.800000
432.353485	156.040000
432.447174	156.020000
432.540802	156.060000
432.634491	156.260000
432.728149	156.580000
432.821838	157.120000
432.915466	156.500000
433.009186	156.660000
433.102814	155.940000
433.196503	155.840000
433.290131	155.640000
433.383850	155.940000
433.477509	155.980000
433.571167	156.580000
433.664856	157.060000
433.758514	157.260000
433.852173	157.140000
433.945862	156.860000
434.039520	156.580000
434.133179	155.900000
434.226868	155.320000
434.320526	154.740000
434.414185	155.320000
434.507874	154.920000
434.601562	155.300000
434.695221	155.180000
434.788910	155.780000
434.882538	155.880000
434.976257	155.780000
435.069885	155.760000
435.163574	156.160000
435.257233	155.540000
435.350922	155.040000
435.444580	154.940000
435.538269	154.560000
435.631897	154.980000
435.725616	155.860000
435.819275	156.360000
435.912964	156.920000
436.006622	157.520000
436.100311	157.180000
436.193970	156.320000
436.287628	155.740000
436.381317	155.520000
436.474976	154.940000
436.568665	154.480000
436.662323	154.920000
436.756012	155.000000
436.849670	154.840000
436.943390	154.600000
437.037018	154.760000
437.130737	154.420000
437.224365	154.400000
437.318085	154.720000
437.411713	155.160000
437.505432	155.640000
437.599060	156.640000
437.692780	157.000000
437.786407	156.820000
437.880127	156.860000
437.973755	156.360000
438.067474	155.540000
438.161133	155.280000
438.254822	155.700000
438.348480	155.420000
438.442169	156.180000
438.535828	156.820000
438.629517	156.340000
438.723175	155.560000
438.816864	156.200000
438.910553	155.440000
439.004211	154.900000
439.097900	154.800000
439.191559	155.220000
439.285248	154.260000
439.378906	154.440000
439.472626	154.240000
439.566284	154.300000
439.659973	154.200000
439.753632	154.260000
439.847321	154.700000
439.940979	155.040000
440.034698	155.300000
440.128326	154.980000
440.222046	154.840000
440.315674	153.840000
440.409393	153.740000
440.503082	153.540000
440.596741	153.960000
440.690430	154.360000
440.784088	154.340000
440.877777	153.700000
440.971466	153.920000
441.065125	153.420000
441.158813	153.360000
441.252502	153.580000
441.346161	154.220000
441.439850	154.320000
441.533539	154.340000
441.627197	154.080000
441.720886	153.960000
441.814606	154.140000
441.908234	154.520000
442.001953	154.520000
442.095612	155.060000
442.189301	155.640000
442.282959	155.500000
442.376678	154.480000
442.470306	155.500000
442.564026	155.160000
442.657684	155.120000
442.751404	155.140000
442.845032	156.180000
442.938751	155.220000
443.032440	155.120000
443.126099	154.760000
443.219788	155.000000
443.313477	154.360000
443.407166	154.880000
443.500824	155.140000
443.594513	155.480000
443.688202	155.080000
443.781891	154.680000
443.875549	154.100000
443.969238	154.160000
444.062927	153.780000
444.156647	153.600000
444.250275	154.520000
444.343994	154.820000
444.437653	154.800000
444.531372	154.820000
444.625031	155.120000
444.718719	154.360000
444.812378	154.420000
444.906097	154.260000
444.999756	153.700000
445.093445	153.720000
445.187103	154.020000
445.280823	154.340000
445.374512	154.000000
445.468201	154.440000
445.561859	154.240000
445.655548	154.000000
445.749237	153.120000
445.842926	153.460000
445.936615	154.040000
446.030304	153.800000
446.123962	154.140000
446.217651	154.400000
446.311340	154.320000
446.405029	153.560000
446.498749	153.480000
446.592407	153.200000
446.686096	153.620000
446.779755	153.800000
446.873474	154.100000
446.967133	154.660000
447.060852	154.460000
447.154510	154.420000
447.248230	154.300000
447.341858	154.500000
447.435577	153.720000
447.529236	153.820000
447.622955	153.340000
447.716644	153.420000
447.810333	153.400000
447.904022	154.380000
447.997711	154.320000
448.091400	154.780000
448.185059	154.720000
448.278748	154.920000
448.372437	154.280000
448.466125	154.740000
448.559814	154.700000
448.653503	155.180000
448.747192	155.220000
448.840912	155.940000
448.934570	155.760000
449.028290	156.300000
449.121948	155.880000
449.215637	155.240000
449.309296	154.500000
449.403015	154.580000
449.496674	153.960000
449.590393	153.920000
449.684052	153.880000
449.777771	154.820000
449.871429	154.280000
449.965149	154.260000
450.058838	154.620000
450.152527	155.620000
450.246216	155.200000
450.339905	155.760000
450.433594	155.700000
450.527283	156.060000
450.620972	155.300000
450.714661	155.400000
450.808350	155.280000
450.902039	155.640000
450.995728	155.140000
451.089417	155.040000
451.183105	154.720000
451.276794	155.200000
451.370514	154.480000
451.464172	153.600000
451.557892	153.540000
451.651550	154.000000
451.745270	153.180000
451.838928	152.920000
451.932648	153.660000
452.026306	154.400000
452.120026	153.840000
452.213684	154.580000
452.307404	155.420000
452.401062	155.580000
452.494781	155.520000
452.588470	155.760000
452.682159	155.260000
452.775848	155.060000
452.869537	154.440000
452.963226	153.820000
453.056915	153.700000
453.150604	153.800000
453.244293	153.660000
453.337982	154.560000
453.431671	154.880000
453.525360	155.180000
453.619049	155.260000
453.712769	155.520000
453.806427	154.660000
453.900146	154.180000
453.993805	154.000000
454.087555	154.440000
454.181213	154.320000
454.274933	154.500000
454.368591	154.760000
454.462311	154.560000
454.555969	153.900000
454.649689	154.720000
454.743347	154.860000
454.837067	155.460000
454.930756	155.980000
455.024445	156.180000
455.118134	155.540000
455.211853	155.700000
455.305542	155.060000
455.399231	154.580000
455.492920	154.620000
455.586609	154.640000
455.680298	154.920000
455.773987	154.720000
455.867676	154.700000
455.961365	154.780000
456.055084	154.660000
456.148773	154.060000
456.242493	154.300000
456.336151	154.320000
456.429871	154.700000
456.523529	155.100000
456.617249	154.880000
456.710907	155.800000
456.804626	156.020000
456.898315	155.220000
456.992035	154.860000
457.085693	154.740000
457.179413	153.700000
457.273102	154.520000
457.366791	154.900000
457.460480	155.240000
457.554199	156.020000
457.647888	156.240000
457.741577	155.400000
457.835266	155.460000
457.928955	155.360000
458.022644	155.740000
458.116364	155.940000
458.210052	155.860000
458.303741	155.920000
458.397461	155.380000
458.491119	154.580000
458.584839	154.640000
458.678528	154.620000
458.772247	154.040000
458.865906	154.200000
458.959625	155.300000
459.053284	154.960000
459.147003	154.820000
459.240692	155.760000
459.334412	156.100000
459.428070	155.100000
459.521790	155.240000
459.615479	155.100000
459.709198	155.200000
459.802887	154.600000
459.896576	154.480000
459.990265	154.600000
460.083954	155.300000
460.177673	154.400000
460.271362	154.780000
460.365051	155.020000
460.458740	154.520000
460.552429	153.460000
460.646149	153.680000
460.739838	153.140000
460.833527	152.980000
460.927246	153.000000
461.020905	153.420000
461.114655	153.460000
461.208313	153.980000
461.302032	153.960000
461.395691	154.320000
461.489441	154.540000
461.583099	154.380000
461.676819	154.000000
461.770477	154.420000
461.864197	154.040000
461.957916	153.820000
462.051605	153.360000
462.145294	154.400000
462.238983	154.040000
462.332703	154.760000
462.426392	155.360000
462.520081	155.640000
462.613770	154.980000
462.707489	155.120000
462.801178	154.660000
462.894867	154.320000
462.988556	154.400000
463.082275	154.480000
463.175964	154.000000
463.269684	154.300000
463.363342	154.140000
463.457092	153.420000
463.550751	153.760000
463.644470	154.240000
463.738129	153.820000
463.831879	154.280000
463.925537	155.740000
464.019257	155.840000
464.112946	155.740000
464.206665	155.860000
464.300323	155.380000
464.394043	154.740000
464.487762	154.260000
464.581451	154.700000
464.675140	154.800000
464.768829	155.140000
464.862549	155.440000
464.956238	155.660000
465.049927	155.420000
465.143646	155.340000
465.237335	154.940000
465.331024	154.960000
465.424713	155.040000
465.518433	154.880000
465.612152	154.540000
465.705811	154.780000
465.799561	154.640000
465.893219	154.180000
465.986938	154.160000
466.080597	154.360000
466.174347	154.500000
466.268005	154.740000
466.361725	154.840000
466.455414	155.040000
466.549133	154.800000
466.642792	154.940000
466.736542	154.380000
466.830231	154.540000
466.923920	154.220000
467.017609	154.520000
467.111328	154.020000
467.205017	154.220000
467.298706	153.980000
467.392426	154.340000
467.486115	154.660000
467.579803	154.220000
467.673523	154.660000
467.767212	154.880000
467.860901	154.740000
467.954651	154.500000
468.048309	155.000000
468.142029	154.820000
468.235718	154.580000
468.329437	154.220000
468.423096	154.580000
468.516846	154.580000
468.610504	154.440000
468.704224	154.220000
468.797913	154.420000
468.891632	154.140000
468.985291	154.060000
469.079010	154.220000
469.172729	154.140000
469.266418	154.740000
469.360107	155.080000
469.453827	155.040000
469.547516	154.620000
469.641205	155.240000
469.734924	155.120000
469.828613	155.220000
469.922302	155.460000
470.016022	155.500000
470.109711	155.140000
470.203430	154.560000
470.297150	153.600000
470.390808	153.860000
470.484558	153.720000
470.578217	154.200000
470.671936	154.520000
470.765625	155.420000
470.859344	154.760000
470.953003	155.420000
471.046753	154.980000
471.140411	154.340000
471.234131	154.140000
471.327820	154.920000
471.421539	154.520000
471.515228	154.260000
471.608948	154.740000
471.702637	154.100000
471.796326	153.540000
471.890045	153.920000
471.983734	154.180000
472.077423	153.920000
472.171143	154.460000
472.264832	154.400000
472.358521	153.940000
472.452240	153.760000
472.545929	154.540000
472.639648	154.500000
472.733337	154.940000
472.827057	155.100000
472.920746	155.260000
473.014465	155.080000
473.108124	155.080000
473.201874	155.240000
473.295532	154.980000
473.389252	155.220000
473.482941	155.140000
473.576660	154.840000
473.670319	154.600000
473.764069	155.180000
473.857727	155.400000
473.951477	155.740000
474.045166	156.260000
474.138855	155.960000
474.232574	155.420000
474.326263	155.300000
474.419952	155.340000
474.513672	155.060000
474.607361	154.700000
474.701050	154.900000
474.794769	154.980000
474.888458	154.840000
474.982178	155.080000
475.075867	155.680000
475.169586	155.680000
475.263275	155.660000
475.356995	155.380000
475.450653	154.800000
475.544403	154.520000
475.638062	155.340000
475.731812	154.620000
475.825470	154.640000
475.919189	155.140000
476.012878	155.520000
476.106598	154.520000
476.200256	155.340000
476.294006	155.400000
476.387695	155.640000
476.481384	155.240000
476.575104	155.820000
476.668793	155.320000
476.762512	154.780000
476.856201	155.020000
476.949890	154.940000
477.043610	154.240000
477.137299	154.340000
477.230988	154.680000
477.324707	154.260000
477.418396	154.820000
477.512146	154.900000
477.605804	154.720000
477.699524	155.160000
477.793213	154.920000
477.886932	154.600000
477.980591	154.600000
478.074341	154.600000
478.167999	153.540000
478.261749	153.900000
478.355408	153.840000
478.449127	154.420000
478.542816	155.580000
478.636536	156.480000
478.730225	156.360000
478.823944	156.820000
478.917633	156.700000
479.011322	156.200000
479.105042	156.200000
479.198730	156.160000
479.292450	155.820000
479.386139	155.900000
479.479828	156.100000
479.573547	156.280000
479.667267	156.020000
479.760925	155.920000
479.854675	155.760000
479.948334	155.320000
480.042084	154.840000
480.135742	155.320000
480.229462	154.840000
480.323151	154.900000
480.416870	154.320000
480.510529	154.340000
480.604279	153.640000
480.697937	154.660000
480.791656	154.220000
480.885345	154.260000
480.979065	154.280000
481.072754	154.880000
481.166473	154.740000
481.260132	154.920000
481.353882	154.780000
481.447540	154.800000
481.541260	154.440000
481.635010	153.760000
481.728668	153.700000
481.822388	153.840000
481.916077	153.740000
482.009796	153.740000
482.103485	154.320000
482.197205	154.440000
482.290863	154.660000
482.384613	154.480000
482.478271	154.260000
482.571991	154.120000
482.665680	153.940000
482.759399	154.660000
482.853058	155.200000
482.946808	155.640000
483.040466	155.600000
483.134216	155.400000
483.227875	154.460000
483.321594	154.980000
483.415283	154.780000
483.509003	154.600000
483.602661	154.400000
483.696411	155.040000
483.790070	154.380000
483.883789	154.280000
483.977478	154.560000
484.071198	155.180000
484.164917	154.700000
484.258606	154.360000
484.352325	154.980000
484.445984	155.040000
484.539734	154.840000
484.633392	154.460000
484.727142	155.060000
484.820801	154.640000
484.914520	154.260000
485.008209	154.520000
485.101929	155.280000
485.195587	154.420000
485.289337	154.260000
485.382996	154.600000
485.476715	154.600000
485.570404	154.680000
485.664124	155.100000
485.757782	155.620000
485.851532	155.380000
485.945190	155.160000
486.038910	155.080000
486.132599	155.560000
486.226318	154.840000
486.319977	154.780000
486.413727	155.540000
486.507446	155.020000
486.601105	154.420000
486.694855	154.560000
486.788513	154.380000
486.882233	153.760000
486.975922	154.000000
487.069641	153.800000
487.163300	153.440000
487.257050	154.680000
487.350708	154.400000
487.444427	154.020000
487.538116	154.280000
487.631836	154.620000
487.725494	153.620000
487.819214	153.960000
487.912903	154.200000
488.006622	154.540000
488.100281	154.580000
488.194031	154.740000
488.287689	155.060000
488.381409	155.620000
488.475098	155.280000
488.568817	155.340000
488.662476	155.080000
488.756226	154.140000
488.849945	153.260000
488.943604	153.460000
489.037354	154.000000
489.131012	154.080000
489.224731	154.380000
489.318390	154.700000
489.412140	154.680000
489.505798	154.160000
489.599518	154.020000
489.693207	154.340000
489.786926	154.460000
489.880585	154.280000
489.974335	154.580000
490.067993	155.640000
490.161713	155.840000
490.255371	156.460000
490.349121	156.700000
490.442780	156.540000
490.536499	155.500000
490.630188	155.280000
490.723907	154.660000
490.817566	154.760000
490.911285	154.860000
491.004974	154.700000
491.098694	154.440000
491.192413	154.900000
491.286102	154.460000
491.379822	154.340000
491.473480	154.940000
491.567200	154.960000
491.660889	154.220000
491.754608	154.340000
491.848267	154.120000
491.941986	153.860000
492.035675	154.000000
492.129395	154.740000
492.223053	154.420000
492.316772	154.520000
492.410461	154.340000
492.504181	154.160000
492.597839	153.420000
492.691559	154.020000
492.785248	154.080000
492.878967	154.220000
492.972626	153.980000
493.066345	154.140000
493.160034	153.740000
493.253754	153.820000
493.347412	153.420000
493.441132	153.920000
493.534882	154.640000
493.628540	154.640000
493.722260	155.000000
493.815918	155.560000
493.909668	156.180000
494.003326	156.280000
494.097046	156.540000
494.190704	156.020000
494.284454	155.860000
494.378113	155.480000
494.471832	154.980000
494.565491	154.720000
494.659210	154.800000
494.752899	154.580000
494.846619	154.240000
494.940277	154.320000
495.033997	154.180000
495.127686	153.760000
495.221405	153.700000
495.315063	153.920000
495.408783	153.720000
495.502441	154.020000
495.596191	154.340000
495.689850	154.360000
495.783569	154.540000
495.877228	154.560000
495.970947	154.260000
496.064697	154.360000
496.158356	155.200000
496.252075	154.460000
496.345734	154.400000
496.439453	155.220000
496.533142	155.440000
496.626862	155.200000
496.720520	155.540000
496.814240	155.940000
496.907898	155.480000
497.001617	155.260000
497.095306	154.760000
497.189026	154.760000
497.282684	154.660000
497.376404	155.000000
497.470062	154.860000
497.563782	155.200000
497.657471	155.100000
497.751190	154.680000
497.844849	154.440000
497.938568	154.780000
498.032227	154.460000
498.125946	154.740000
498.219635	154.780000
498.313354	154.900000
498.407074	154.460000
498.500732	154.740000
498.594452	154.700000
498.688110	154.440000
498.781830	154.080000
498.875519	154.060000
498.969238	153.640000
499.062897	153.400000
499.156616	153.920000
499.250275	154.060000
499.343994	153.720000
499.437653	154.200000
499.531372	154.300000
499.625061	154.720000
499.718781	154.660000
499.812439	155.620000
499.906158	155.380000
499.999817	155.560000
500.093536	155.060000
500.187195	155.280000
500.280914	155.020000
500.374573	155.380000
500.468323	154.960000
500.561981	155.140000
500.655701	154.720000
500.749420	154.680000
500.843079	154.740000
500.936798	155.220000
501.030457	155.740000
501.124176	156.140000
501.217834	155.960000
501.311554	155.640000
501.405212	155.320000
501.498962	154.320000
501.592621	154.120000
501.686340	154.720000
501.779999	154.900000
501.873718	155.060000
501.967377	155.340000
502.061096	155.680000
502.154755	154.920000
502.248474	154.720000
502.342133	155.080000
502.435852	154.920000
502.529510	155.340000
502.623230	155.900000
502.716888	155.440000
502.810608	155.060000
502.904266	155.860000
502.997986	155.300000
503.091705	155.100000
503.185364	155.360000
503.279083	155.780000
503.372772	155.360000
503.466492	155.160000
503.560150	154.900000
503.653870	155.280000
503.747528	154.840000
503.841248	154.760000
503.934906	154.580000
504.028625	154.400000
504.122284	154.300000
504.216003	155.280000
504.309662	154.940000
504.403381	155.900000
504.497040	155.920000
504.590759	155.500000
504.684418	154.660000
504.778137	155.340000
504.871796	154.840000
504.965515	154.820000
505.059174	155.280000
505.152893	155.040000
505.246521	154.300000
505.340240	154.120000
505.433899	154.420000
505.527618	154.540000
505.621338	155.000000
505.714996	155.160000
505.808716	155.020000
505.902374	155.460000
505.996094	155.140000
506.089752	154.700000
506.183472	154.720000
506.277130	154.840000
506.370850	154.480000
506.464508	154.600000
506.558228	154.600000
506.651886	154.280000
506.745605	154.200000
506.839264	154.580000
506.932983	154.660000
507.026611	154.980000
507.120331	155.640000
507.213989	155.320000
507.307709	155.140000
507.401367	155.360000
507.495087	155.940000
507.588745	155.500000
507.682465	156.680000
507.776123	156.420000
507.869843	156.220000
507.963531	155.860000
508.057190	156.160000
508.150909	154.960000
508.244568	155.360000
508.338287	154.880000
508.431946	154.260000
508.525665	154.160000
508.619324	154.360000
508.713013	154.400000
508.806671	155.140000
508.900391	156.280000
508.994049	156.520000
509.087769	156.260000
509.181427	155.840000
509.275146	155.280000
509.368774	154.200000
509.462494	153.840000
509.556152	154.100000
509.649872	154.660000
509.743530	154.940000
509.837250	155.160000
509.930878	155.240000
510.024597	155.260000
510.118256	154.800000
510.211975	154.580000
510.305695	154.520000
510.399353	154.780000
510.493042	155.060000
510.586700	155.340000
510.680420	155.920000
510.774078	155.460000
510.867798	155.400000
510.961426	154.780000
511.055145	154.400000
511.148804	153.920000
511.242523	155.020000
511.336151	155.260000
511.429871	156.240000
511.523529	156.360000
511.617249	156.340000
511.710876	155.460000
511.804596	154.980000
511.898254	154.460000
511.991974	154.680000
512.085632	154.360000
512.179321	154.860000
512.272949	155.140000
512.366699	155.520000
512.460327	155.040000
512.554077	156.220000
512.647766	156.180000
512.741394	155.880000
512.835144	156.360000
512.928772	156.660000
513.022461	155.900000
513.116150	155.080000
513.209839	155.600000
513.303467	154.680000
513.397217	154.080000
513.490845	154.020000
513.584595	154.300000
513.678223	153.660000
513.771912	153.140000
513.865601	153.420000
513.959290	153.200000
514.052917	153.500000
514.146667	154.380000
514.240295	154.960000
514.333984	155.420000
514.427673	155.380000
514.521362	155.800000
514.614990	154.960000
514.708740	154.940000
514.802368	154.820000
514.896057	154.920000
514.989746	155.320000
515.083435	155.220000
515.177124	155.260000
515.270752	154.980000
515.364502	155.140000
515.458130	154.700000
515.551819	154.840000
515.645508	154.820000
515.739197	155.020000
515.832825	155.080000
515.926575	154.720000
516.020203	155.140000
516.113892	155.720000
516.207520	155.500000
516.301270	155.780000
516.394897	155.860000
516.488586	156.020000
516.582275	155.840000
516.675964	155.280000
516.769592	154.880000
516.863281	155.620000
516.956970	155.500000
517.050659	155.060000
517.144287	155.860000
517.238037	155.940000
517.331665	154.880000
517.425354	154.520000
517.519043	154.260000
517.612732	154.400000
517.706421	154.120000
517.800049	153.960000
517.893738	153.960000
517.987427	154.180000
518.081116	153.720000
518.174744	153.440000
518.268433	154.040000
518.362122	154.560000
518.455811	154.440000
518.549438	155.400000
518.643127	156.780000
518.736816	156.600000
518.830505	155.780000
518.924133	155.620000
519.017822	155.340000
519.111511	154.560000
519.205200	155.060000
519.298828	155.200000
519.392517	155.340000
519.486206	155.280000
519.579895	155.440000
519.673523	155.040000
519.767212	155.180000
519.860901	155.540000
519.954590	155.200000
520.048279	154.340000
520.141907	154.260000
520.235596	155.100000
520.329224	155.440000
520.422974	155.280000
520.516602	155.860000
520.610291	155.500000
520.703918	154.880000
520.797607	154.380000
520.891296	154.360000
520.984985	154.340000
521.078613	155.060000
521.172302	154.460000
521.265930	155.380000
521.359680	156.140000
521.453308	156.080000
521.546997	155.840000
521.640625	156.540000
521.734314	155.660000
521.827942	155.420000
521.921692	155.580000
522.015320	155.660000
522.109009	155.160000
522.202698	155.140000
522.296326	154.800000
522.390015	155.200000
522.483704	155.180000
522.577393	155.100000
522.671021	154.720000
522.764709	154.260000
522.858337	154.360000
522.952026	154.300000
523.045654	155.200000
523.139404	155.940000
523.233032	156.460000
523.326721	156.060000
523.420349	156.040000
523.514038	155.320000
523.607666	155.600000
523.701355	154.980000
523.795044	155.120000
523.888733	155.440000
523.982361	155.720000
524.076050	155.240000
524.169678	156.140000
524.263367	155.640000
524.356995	154.920000
524.450684	154.740000
524.544373	154.440000
524.638062	154.200000
524.731750	154.680000
524.825378	154.800000
524.919067	154.320000
525.012695	154.380000
525.106384	154.280000
525.200012	154.460000
525.293701	154.420000
525.387329	155.200000
525.481018	155.480000
525.574646	155.860000
525.668396	155.440000
525.762024	156.100000
525.855713	156.200000
525.949341	155.700000
526.043030	155.240000
526.136658	154.960000
526.230347	154.260000
526.323975	153.580000
526.417664	153.680000
526.511292	153.760000
526.604980	153.880000
526.698608	153.940000
526.792297	154.240000
526.885925	154.620000
526.979614	154.840000
527.073303	154.980000
527.166931	155.060000
527.260620	155.020000
527.354309	155.300000
527.447998	154.940000
527.541626	154.720000
527.635315	154.880000
527.728943	155.460000
527.822632	155.580000
527.916260	155.840000
528.009949	156.180000
528.103577	155.900000
528.197266	155.140000
528.290894	154.680000
528.384583	154.400000
528.478210	154.020000
528.571899	154.280000
528.665527	154.620000
528.759216	154.940000
528.852844	155.500000
528.946533	155.660000
529.040161	155.560000
529.133850	155.140000
529.227478	154.880000
529.321167	154.860000
529.414856	155.460000
529.508484	155.760000
529.602173	155.580000
529.695801	155.600000
529.789490	155.260000
529.883057	154.620000
529.976746	154.580000
530.070374	155.620000
530.164062	155.440000
530.257690	155.780000
530.351379	156.240000
530.445007	156.180000
530.538696	155.000000
530.632324	155.380000
530.726013	155.120000
530.819641	154.760000
530.913330	154.740000
531.006958	155.200000
531.100647	155.140000
531.194275	155.220000
531.287964	155.300000
531.381592	155.120000
531.475220	155.320000
531.568848	155.120000
531.662537	154.660000
531.756226	155.020000
531.849854	154.860000
531.943542	155.060000
532.037170	154.480000
532.130859	155.000000
532.224487	154.520000
532.318176	154.200000
532.411804	154.400000
532.505432	154.960000
532.599060	154.740000
532.692749	154.540000
532.786377	155.040000
532.880066	154.060000
532.973694	153.620000
533.067383	153.600000
533.161011	153.980000
533.254639	154.120000
533.348267	154.260000
533.441956	154.780000
533.535583	154.660000
533.629272	154.520000
533.722900	154.020000
533.816589	154.420000
533.910156	154.340000
534.003845	154.060000
534.097534	154.080000
534.191162	154.720000
534.284851	154.620000
534.378479	154.700000
534.472107	154.720000
534.565735	154.660000
534.659424	154.640000
534.753052	154.880000
534.846741	154.460000
534.940369	155.320000
535.033997	155.320000
535.127625	155.200000
535.221313	155.840000
535.314941	155.960000
535.408630	155.180000
535.502197	155.380000
535.595886	155.180000
535.689514	154.480000
535.783203	154.880000
535.876831	155.320000
535.970459	155.780000
536.064087	155.560000
536.157776	155.680000
536.251404	155.800000
536.345093	155.420000
536.438721	154.860000
536.532349	155.140000
536.626038	154.780000
536.719666	154.620000
536.813293	154.560000
536.906921	154.540000
537.000610	154.920000
537.094238	154.860000
537.187866	154.580000
537.281494	154.440000
537.375183	154.780000
537.468811	154.180000
537.562439	154.460000
537.656067	154.480000
537.749756	154.800000
537.843384	154.620000
537.937012	155.200000
538.030640	154.940000
538.124329	154.960000
538.217896	155.520000
538.311584	155.680000
538.405212	155.200000
538.498901	155.680000
538.592468	156.480000
538.686157	155.560000
538.779785	154.660000
538.873413	154.920000
538.967102	154.360000
539.060730	153.500000
539.154358	153.860000
539.247986	154.660000
539.341675	154.640000
539.435242	154.740000
539.528931	154.940000
539.622559	154.940000
539.716187	155.460000
539.809814	155.520000
539.903503	155.500000
539.997070	155.180000
540.090759	155.200000
540.184387	154.620000
540.278015	155.000000
540.371643	155.400000
540.465332	155.540000
540.558899	155.160000
540.652588	155.300000
540.746216	154.700000
540.839844	154.780000
540.933472	154.880000
541.027100	154.940000
541.120728	155.000000
541.214417	155.240000
541.308044	155.580000
541.401672	155.120000
541.495300	155.020000
541.588928	154.700000
541.682617	154.480000
541.776184	153.600000
541.869873	154.180000
541.963440	154.700000
542.057129	154.720000
542.150757	155.020000
542.244385	154.740000
542.338013	154.360000
542.431641	154.240000
542.525269	154.280000
542.618958	154.460000
542.712524	154.980000
542.806213	154.900000
542.899780	154.980000
542.993469	154.520000
543.087036	153.960000
543.180725	153.280000
543.274292	153.740000
543.367981	154.060000
543.461548	154.700000
543.555237	154.820000
543.648926	156.000000
543.742493	156.540000
543.836182	156.260000
543.929749	156.020000
544.023437	156.320000
544.117004	155.900000
544.210693	155.560000
544.304260	155.640000
544.397949	155.700000
544.491516	155.980000
544.585205	155.880000
544.678772	155.460000
544.772461	155.920000
544.866028	155.760000
544.959717	155.320000
545.053284	155.100000
545.146973	155.260000
545.240540	154.560000
545.334229	155.360000
545.427795	155.740000
545.521423	155.840000
545.615051	155.640000
545.708679	156.440000
545.802307	156.220000
545.895935	156.220000
545.989624	157.200000
546.083191	157.380000
546.176880	156.900000
546.270447	156.100000
546.364136	156.160000
546.457703	155.180000
546.551331	155.140000
546.644958	155.320000
546.738586	156.040000
546.832214	155.540000
546.925842	155.660000
547.019409	155.900000
547.113098	155.560000
547.206665	154.940000
547.300354	154.900000
547.393921	155.240000
547.487549	155.320000
547.581177	154.920000
547.674805	155.040000
547.768433	154.840000
547.862061	154.700000
547.955627	154.040000
548.049316	155.080000
548.142883	155.560000
548.236572	156.020000
548.330139	156.240000
548.423767	156.640000
548.517456	155.980000
548.611023	155.900000
548.704651	155.180000
548.798279	155.040000
548.891907	155.260000
548.985474	155.260000
549.079163	155.100000
549.172729	155.320000
549.266357	154.660000
549.359985	154.720000
549.453613	154.260000
549.547180	154.060000
549.640869	154.280000
549.734436	154.620000
549.828064	154.860000
549.921631	155.100000
550.015320	154.960000
550.108887	155.680000
550.202515	155.480000
550.296143	154.940000
550.389771	155.240000
550.483337	155.480000
550.576965	154.820000
550.670593	155.460000
550.764221	155.620000
550.857849	155.360000
550.951477	154.780000
551.045105	154.600000
551.138672	154.280000
551.232300	153.440000
551.325928	153.840000
551.419556	154.440000
551.513123	154.500000
551.606750	154.260000
551.700378	154.920000
551.794006	154.500000
551.887573	154.300000
551.981201	154.800000
552.074768	155.040000
552.168457	154.600000
552.262024	155.840000
552.355652	155.960000
552.449219	156.420000
552.542847	156.300000
552.636475	156.360000
552.730103	154.660000
552.823669	154.260000
552.917297	153.500000
553.010864	153.400000
553.104553	154.000000
553.198181	154.260000
553.291748	155.280000
553.385376	155.340000
553.478943	155.580000
553.572571	155.220000
553.666199	155.780000
553.759827	154.940000
553.853394	154.360000
553.947021	154.260000
554.040588	154.440000
554.134216	154.560000
554.227783	155.440000
554.321411	156.420000
554.415039	156.300000
554.508667	156.180000
554.602234	156.040000
554.695862	154.980000
554.789429	154.800000
554.883057	155.080000
554.976624	154.980000
555.070251	154.660000
555.163818	154.620000
555.257507	154.580000
555.351074	154.600000
555.444702	155.860000
555.538330	155.480000
555.631897	156.260000
555.725525	156.140000
555.819092	156.000000
555.912720	154.520000
556.006287	155.500000
556.099915	155.080000
556.193481	155.300000
556.287109	155.320000
556.380676	155.440000
556.474304	155.300000
556.567871	155.760000
556.661499	155.140000
556.755066	155.020000
556.848694	155.400000
556.942261	155.180000
557.035889	155.040000
557.129517	155.300000
557.223145	155.880000
557.316711	155.560000
557.410339	155.480000
557.503906	155.200000
557.597473	155.440000
557.691040	154.820000
557.784668	154.880000
557.878296	154.980000
557.971863	155.280000
558.065491	155.080000
558.159058	154.920000
558.252686	155.800000
558.346252	156.400000
558.439880	155.980000
558.533447	155.700000
558.627075	155.600000
558.720642	154.740000
558.814270	154.180000
558.907837	154.340000
559.001465	154.180000
559.095032	154.820000
559.188660	155.220000
559.282227	154.640000
559.375854	155.120000
559.469360	155.180000
559.562988	155.220000
559.656555	154.980000
559.750183	155.280000
559.843750	155.220000
559.937378	155.500000
560.030945	155.320000
560.124573	0.000000
560.218140	0.000000
560.311707	0.000000
560.405334	0.000000
560.498901	0.000000
560.592529	0.000000
560.686096	0.000000
560.779724	0.000000
560.873291	0.000000
560.966858	0.000000
561.060425	0.000000
561.154053	0.000000
561.247620	0.000000
561.341248	0.000000
561.434814	0.000000
561.528381	0.000000
561.621948	0.000000
561.715576	0.000000
561.809143	0.000000
561.902771	0.000000
561.996277	0.000000
562.089905	0.000000
562.183472	0.000000
562.277100	0.000000
