Model Number: SPM-002-B   
Serial Number: 70087108
Firmware Version: 004.15.4
Exposure Time: 100000.000000us
Data Taken on: 15-01-2021 16:18:59.039
Wavelength	Amplitude
221.570786	0.000000
221.663406	0.000000
221.756027	0.000000
221.848648	0.000000
221.941269	0.000000
222.033905	0.000000
222.126526	0.000000
222.219162	0.000000
222.311798	0.000000
222.404419	0.000000
222.497055	0.000000
222.589676	0.000000
222.682312	0.000000
222.774933	0.000000
222.867569	0.000000
222.960205	0.000000
223.052841	0.000000
223.145462	0.000000
223.238098	0.000000
223.330734	0.000000
223.423386	0.000000
223.516022	0.000000
223.608658	0.000000
223.701309	0.000000
223.793945	0.000000
223.886581	0.000000
223.979218	0.000000
224.071869	0.000000
224.164505	0.000000
224.257156	0.000000
224.349792	0.000000
224.442444	0.000000
224.535095	0.000000
224.627747	0.000000
224.720398	0.000000
224.813034	0.000000
224.905685	0.000000
224.998337	151.240000
225.090988	151.160000
225.183640	151.460000
225.276291	151.180000
225.368942	151.060000
225.461594	151.820000
225.554245	152.040000
225.646912	152.160000
225.739578	152.580000
225.832230	153.240000
225.924896	152.400000
226.017548	152.700000
226.110199	153.100000
226.202866	152.360000
226.295532	152.060000
226.388184	151.720000
226.480850	151.120000
226.573517	150.580000
226.666168	151.080000
226.758835	151.340000
226.851501	152.300000
226.944183	152.700000
227.036850	152.420000
227.129517	152.480000
227.222183	152.460000
227.314850	152.060000
227.407516	152.200000
227.500198	152.920000
227.592865	152.320000
227.685532	152.020000
227.778214	151.840000
227.870880	152.100000
227.963562	152.340000
228.056229	153.100000
228.148926	153.120000
228.241592	154.280000
228.334274	153.720000
228.426956	153.380000
228.519638	153.180000
228.612305	152.380000
228.704987	151.700000
228.797668	152.000000
228.890350	151.560000
228.983032	150.940000
229.075714	151.900000
229.168396	151.620000
229.261108	151.200000
229.353790	151.420000
229.446472	151.900000
229.539169	151.900000
229.631851	151.660000
229.724533	152.020000
229.817230	152.180000
229.909912	153.020000
230.002609	152.780000
230.095306	153.060000
230.187988	153.040000
230.280685	152.800000
230.373383	151.620000
230.466095	151.640000
230.558792	151.680000
230.651474	151.540000
230.744171	151.360000
230.836868	151.560000
230.929581	151.700000
231.022278	151.880000
231.114975	152.060000
231.207672	152.140000
231.300369	152.520000
231.393082	152.680000
231.485779	152.400000
231.578506	152.280000
231.671204	152.580000
231.763916	152.460000
231.856613	152.120000
231.949326	152.080000
232.042023	151.960000
232.134735	152.020000
232.227448	152.100000
232.320160	152.660000
232.412872	152.880000
232.505585	153.640000
232.598297	153.440000
232.691010	153.200000
232.783722	152.440000
232.876450	152.760000
232.969162	151.860000
233.061874	151.680000
233.154587	151.200000
233.247314	151.840000
233.340027	151.280000
233.432739	151.920000
233.525467	151.880000
233.618179	152.500000
233.710907	151.960000
233.803635	152.360000
233.896347	152.000000
233.989090	152.840000
234.081818	152.940000
234.174545	153.240000
234.267258	152.780000
234.359985	153.140000
234.452713	152.460000
234.545441	152.020000
234.638168	151.860000
234.730896	152.300000
234.823639	152.340000
234.916367	152.620000
235.009094	152.740000
235.101822	152.880000
235.194580	152.940000
235.287308	152.740000
235.380051	152.400000
235.472778	152.880000
235.565521	152.960000
235.658249	152.440000
235.750992	152.180000
235.843719	151.900000
235.936462	151.940000
236.029205	151.460000
236.121948	151.220000
236.214691	151.700000
236.307449	152.840000
236.400192	152.060000
236.492935	152.100000
236.585678	152.600000
236.678421	152.280000
236.771164	151.820000
236.863907	152.540000
236.956665	152.960000
237.049408	154.500000
237.142151	153.940000
237.234909	154.520000
237.327652	154.360000
237.420410	153.920000
237.513153	152.720000
237.605927	153.120000
237.698669	152.140000
237.791428	151.540000
237.884186	152.140000
237.976944	151.800000
238.069702	151.980000
238.162445	152.040000
238.255203	152.280000
238.347961	152.460000
238.440720	152.440000
238.533478	152.300000
238.626266	152.060000
238.719025	152.640000
238.811783	152.360000
238.904541	152.280000
238.997314	152.200000
239.090073	152.040000
239.182831	151.920000
239.275604	152.680000
239.368362	152.400000
239.461136	152.360000
239.553909	152.620000
239.646667	152.280000
239.739441	151.400000
239.832214	151.800000
239.925003	151.860000
240.017761	152.500000
240.110535	153.060000
240.203308	152.620000
240.296082	152.500000
240.388855	152.720000
240.481628	152.560000
240.574417	152.440000
240.667191	152.600000
240.759964	152.400000
240.852737	152.340000
240.945526	151.860000
241.038315	151.600000
241.131088	151.700000
241.223877	152.060000
241.316650	151.420000
241.409439	152.000000
241.502228	151.620000
241.595001	152.360000
241.687790	152.120000
241.780579	152.620000
241.873367	152.580000
241.966141	152.900000
242.058929	151.760000
242.151718	152.000000
242.244507	152.260000
242.337311	151.520000
242.430099	152.200000
242.522903	152.880000
242.615692	152.440000
242.708481	152.240000
242.801270	152.620000
242.894073	152.180000
242.986862	152.040000
243.079651	152.700000
243.172455	152.460000
243.265244	152.720000
243.358063	152.140000
243.450867	152.500000
243.543655	152.280000
243.636459	152.500000
243.729263	152.700000
243.822067	153.300000
243.914856	153.700000
244.007660	153.700000
244.100464	153.660000
244.193268	153.180000
244.286072	152.940000
244.378876	152.280000
244.471680	151.980000
244.564499	152.320000
244.657318	152.920000
244.750122	153.260000
244.842926	152.720000
244.935745	153.240000
245.028549	152.920000
245.121368	152.460000
245.214172	152.240000
245.306992	152.940000
245.399796	152.340000
245.492615	152.380000
245.585434	152.220000
245.678253	152.120000
245.771072	151.920000
245.863892	152.360000
245.956711	152.320000
246.049530	152.280000
246.142349	152.100000
246.235168	152.060000
246.327988	152.480000
246.420807	152.420000
246.513626	152.660000
246.606445	152.500000
246.699280	152.420000
246.792099	152.020000
246.884918	151.820000
246.977753	151.000000
247.070587	151.340000
247.163422	151.220000
247.256241	151.140000
247.349075	151.480000
247.441895	152.060000
247.534729	151.840000
247.627563	151.840000
247.720383	152.500000
247.813217	152.320000
247.906052	152.120000
247.998886	152.380000
248.091736	152.440000
248.184570	151.600000
248.277405	151.920000
248.370239	152.900000
248.463074	153.800000
248.555908	153.980000
248.648743	154.040000
248.741592	153.960000
248.834427	153.220000
248.927261	151.860000
249.020111	152.340000
249.112946	152.900000
249.205795	152.600000
249.298630	152.860000
249.391495	153.140000
249.484344	152.480000
249.577179	152.140000
249.670029	152.360000
249.762878	152.520000
249.855728	152.700000
249.948563	152.940000
250.041412	152.540000
250.134262	152.560000
250.227112	152.700000
250.319962	152.440000
250.412827	152.400000
250.505692	152.280000
250.598541	152.440000
250.691391	151.940000
250.784241	152.200000
250.877106	151.940000
250.969955	152.000000
251.062805	152.320000
251.155670	152.620000
251.248520	152.500000
251.341385	153.000000
251.434235	152.840000
251.527100	152.420000
251.619965	152.180000
251.712814	153.000000
251.805695	152.860000
251.898560	153.420000
251.991425	153.920000
252.084290	154.080000
252.177155	152.860000
252.270020	152.680000
252.362885	152.480000
252.455750	151.820000
252.548615	151.620000
252.641479	152.080000
252.734360	151.740000
252.827240	151.600000
252.920105	151.920000
253.012970	151.920000
253.105850	151.880000
253.198715	151.860000
253.291595	152.140000
253.384460	151.760000
253.477341	151.960000
253.570221	152.400000
253.663086	152.320000
253.755966	152.900000
253.848846	152.960000
253.941727	152.860000
254.034592	152.080000
254.127472	151.740000
254.220367	151.420000
254.313248	151.820000
254.406128	151.340000
254.499008	152.020000
254.591904	153.220000
254.684784	153.500000
254.777664	153.100000
254.870544	153.120000
254.963440	152.560000
255.056335	152.500000
255.149216	152.060000
255.242111	152.600000
255.334991	153.240000
255.427887	153.460000
255.520767	153.600000
255.613663	153.680000
255.706558	153.120000
255.799438	152.680000
255.892334	152.760000
255.985229	152.140000
256.078125	152.060000
256.171021	152.000000
256.263916	152.720000
256.356812	152.860000
256.449707	153.080000
256.542603	153.220000
256.635498	154.000000
256.728394	153.500000
256.821289	153.160000
256.914215	153.380000
257.007080	153.480000
257.100006	153.320000
257.192932	153.680000
257.285828	154.000000
257.378723	153.460000
257.471619	152.920000
257.564545	152.300000
257.657440	152.340000
257.750336	152.640000
257.843262	152.660000
257.936157	153.860000
258.029053	154.200000
258.121979	153.620000
258.214874	153.280000
258.307800	153.120000
258.400696	151.880000
258.493622	151.560000
258.586517	151.160000
258.679443	151.420000
258.772339	151.180000
258.865265	151.280000
258.958160	150.940000
259.051086	152.300000
259.144012	151.900000
259.236938	153.000000
259.329834	152.920000
259.422791	152.980000
259.515717	151.820000
259.608612	151.440000
259.701538	150.940000
259.794464	150.880000
259.887390	150.960000
259.980316	151.060000
260.073212	151.120000
260.166138	150.240000
260.259064	150.900000
260.351990	151.580000
260.444916	151.880000
260.537842	152.420000
260.630768	153.300000
260.723694	153.000000
260.816620	152.820000
260.909546	152.660000
261.002472	152.360000
261.095398	152.080000
261.188354	151.800000
261.281281	151.320000
261.374207	151.640000
261.467133	152.040000
261.560089	152.180000
261.653015	152.060000
261.745972	152.720000
261.838867	152.740000
261.931824	152.860000
262.024780	152.460000
262.117706	153.060000
262.210663	153.220000
262.303589	152.660000
262.396515	152.380000
262.489471	153.520000
262.582397	153.340000
262.675354	152.600000
262.768280	152.920000
262.861237	153.060000
262.954163	152.680000
263.047119	152.500000
263.140045	152.180000
263.233002	152.020000
263.325958	152.080000
263.418884	151.340000
263.511841	151.580000
263.604797	152.120000
263.697723	152.320000
263.790680	152.120000
263.883636	152.820000
263.976593	152.420000
264.069550	152.640000
264.162476	152.500000
264.255463	152.440000
264.348419	151.960000
264.441376	152.560000
264.534332	151.840000
264.627289	152.040000
264.720245	152.780000
264.813202	152.480000
264.906158	152.380000
264.999115	153.160000
265.092072	153.060000
265.185028	152.960000
265.277985	153.740000
265.370941	153.340000
265.463898	152.980000
265.556854	152.760000
265.649811	151.600000
265.742798	151.200000
265.835754	151.420000
265.928711	152.140000
266.021667	152.340000
266.114655	152.740000
266.207611	153.120000
266.300568	152.580000
266.393585	151.680000
266.486511	152.020000
266.579498	151.480000
266.672485	151.100000
266.765442	151.220000
266.858429	151.780000
266.951385	151.160000
267.044342	151.760000
267.137329	151.620000
267.230316	151.960000
267.323273	151.780000
267.416260	152.580000
267.509216	152.260000
267.602203	152.620000
267.695160	153.120000
267.788147	152.920000
267.881134	152.140000
267.974091	152.240000
268.067078	152.000000
268.160065	151.600000
268.253052	151.860000
268.346008	152.220000
268.438995	152.440000
268.531982	152.780000
268.624969	152.560000
268.717987	152.580000
268.810944	152.260000
268.903961	152.460000
268.996948	151.980000
269.089905	152.560000
269.182892	152.600000
269.275879	152.960000
269.368866	152.400000
269.461853	152.560000
269.554871	152.140000
269.647858	152.080000
269.740845	152.520000
269.833832	152.980000
269.926819	153.140000
270.019806	153.180000
270.112793	152.540000
270.205811	152.340000
270.298798	152.120000
270.391785	152.400000
270.484772	152.380000
270.577789	152.820000
270.670776	152.020000
270.763763	152.000000
270.856750	151.880000
270.949768	151.340000
271.042786	151.420000
271.135773	151.860000
271.228790	152.140000
271.321808	151.840000
271.414795	151.820000
271.507782	151.340000
271.600800	151.040000
271.693817	151.040000
271.786804	151.220000
271.879822	151.720000
271.972809	151.700000
272.065826	152.180000
272.158844	151.660000
272.251831	152.300000
272.344849	152.320000
272.437866	152.500000
272.530853	152.760000
272.623871	153.240000
272.716888	151.860000
272.809906	152.420000
272.902893	152.400000
272.995911	151.680000
273.088928	151.420000
273.181946	152.020000
273.274963	151.140000
273.367981	151.420000
273.460999	151.700000
273.554047	152.340000
273.647003	152.980000
273.740051	153.040000
273.833069	153.300000
273.926086	153.740000
274.019135	153.120000
274.112152	152.320000
274.205170	152.380000
274.298187	152.360000
274.391205	151.460000
274.484222	151.740000
274.577240	152.240000
274.670258	152.240000
274.763306	152.080000
274.856323	152.700000
274.949341	152.640000
275.042358	152.860000
275.135406	152.800000
275.228424	152.560000
275.321442	152.340000
275.414490	152.160000
275.507507	152.440000
275.600525	153.060000
275.693573	152.820000
275.786591	152.440000
275.879669	152.720000
275.972656	152.020000
276.065735	151.480000
276.158752	152.280000
276.251801	153.120000
276.344818	152.880000
276.437866	152.920000
276.530884	152.800000
276.623932	151.820000
276.716980	151.800000
276.809998	152.080000
276.903046	152.180000
276.996094	153.280000
277.089111	154.120000
277.182159	154.580000
277.275208	153.860000
277.368256	153.980000
277.461304	153.120000
277.554321	152.380000
277.647369	151.980000
277.740417	152.440000
277.833466	152.260000
277.926514	152.480000
278.019562	153.460000
278.112610	152.820000
278.205688	152.960000
278.298706	152.920000
278.391785	152.640000
278.484833	151.960000
278.577881	151.900000
278.670929	152.080000
278.763977	152.360000
278.857025	152.920000
278.950073	152.960000
279.043121	153.100000
279.136169	152.820000
279.229248	152.340000
279.322296	152.100000
279.415344	152.060000
279.508392	152.020000
279.601440	151.920000
279.694519	151.980000
279.787567	151.580000
279.880615	151.420000
279.973694	151.640000
280.066742	151.960000
280.159790	152.280000
280.252869	152.140000
280.345917	152.780000
280.438995	152.460000
280.532074	152.440000
280.625122	152.520000
280.718201	153.200000
280.811279	152.920000
280.904327	153.340000
280.997406	153.140000
281.090454	153.260000
281.183533	152.980000
281.276581	152.840000
281.369659	152.340000
281.462738	152.520000
281.555786	152.400000
281.648865	152.480000
281.741943	152.280000
281.835022	153.040000
281.928070	152.960000
282.021149	152.900000
282.114227	152.560000
282.207306	152.620000
282.300385	152.700000
282.393433	152.700000
282.486511	152.780000
282.579590	153.380000
282.672668	153.700000
282.765747	153.140000
282.858856	153.200000
282.951904	153.080000
283.045013	153.000000
283.138062	153.280000
283.231171	153.380000
283.324249	153.520000
283.417328	153.580000
283.510406	153.100000
283.603485	152.740000
283.696564	152.560000
283.789642	152.140000
283.882751	151.960000
283.975830	152.700000
284.068909	152.300000
284.161987	153.040000
284.255066	152.800000
284.348175	152.860000
284.441254	152.440000
284.534332	153.120000
284.627441	152.300000
284.720520	152.200000
284.813599	152.260000
284.906708	152.200000
284.999786	151.400000
285.092896	151.400000
285.185974	152.540000
285.279053	152.180000
285.372192	152.260000
285.465240	153.080000
285.558380	153.280000
285.651459	152.720000
285.744568	153.600000
285.837677	153.300000
285.930756	153.140000
286.023865	152.920000
286.116943	152.520000
286.210052	152.040000
286.303162	152.280000
286.396240	152.100000
286.489349	151.900000
286.582458	152.220000
286.675568	151.940000
286.768646	151.640000
286.861755	151.760000
286.954865	152.820000
287.047974	152.380000
287.141083	152.300000
287.234161	152.440000
287.327271	152.040000
287.420380	151.980000
287.513519	151.880000
287.606598	152.340000
287.699738	152.460000
287.792816	152.860000
287.885956	152.480000
287.979034	152.700000
288.072174	152.680000
288.165283	152.500000
288.258392	152.680000
288.351501	152.140000
288.444611	152.380000
288.537720	152.600000
288.630859	152.620000
288.723969	152.580000
288.817078	153.260000
288.910187	153.220000
289.003296	152.840000
289.096436	152.500000
289.189545	152.340000
289.282654	151.680000
289.375763	151.860000
289.468903	152.100000
289.562012	152.740000
289.655121	152.420000
289.748260	152.740000
289.841400	153.040000
289.934509	152.520000
290.027649	152.420000
290.120728	152.820000
290.213898	153.120000
290.306976	152.780000
290.400146	153.120000
290.493256	152.780000
290.586395	152.720000
290.679535	152.760000
290.772644	152.680000
290.865784	151.780000
290.958893	152.120000
291.052032	151.820000
291.145172	151.560000
291.238281	151.380000
291.331421	151.980000
291.424561	152.420000
291.517670	152.240000
291.610809	152.360000
291.703949	152.020000
291.797089	152.400000
291.890228	151.700000
291.983337	151.960000
292.076477	151.980000
292.169617	152.380000
292.262756	152.340000
292.355927	152.380000
292.449036	152.380000
292.542206	152.360000
292.635315	152.620000
292.728485	152.760000
292.821625	152.420000
292.914764	153.660000
293.007904	153.400000
293.101044	153.560000
293.194183	153.320000
293.287323	153.540000
293.380463	152.500000
293.473602	152.460000
293.566742	152.380000
293.659882	152.460000
293.753021	152.680000
293.846191	152.840000
293.939331	152.840000
294.032471	152.700000
294.125610	152.400000
294.218781	152.600000
294.311920	152.960000
294.405060	153.140000
294.498230	153.080000
294.591370	153.140000
294.684540	152.480000
294.777679	151.640000
294.870850	151.840000
294.963959	151.660000
295.057159	151.700000
295.150299	152.240000
295.243469	152.200000
295.336609	151.560000
295.429779	151.600000
295.522919	152.040000
295.616089	151.920000
295.709229	152.820000
295.802399	153.300000
295.895569	152.860000
295.988708	152.560000
296.081879	152.900000
296.175018	152.180000
296.268188	152.020000
296.361359	152.920000
296.454529	152.860000
296.547668	152.440000
296.640839	152.720000
296.734009	152.480000
296.827179	152.340000
296.920319	152.660000
297.013519	152.560000
297.106659	152.660000
297.199860	152.820000
297.292999	152.960000
297.386200	152.500000
297.479309	152.460000
297.572510	152.080000
297.665680	151.720000
297.758850	151.320000
297.852020	151.480000
297.945190	151.400000
298.038361	151.120000
298.131531	152.320000
298.224701	152.280000
298.317871	151.780000
298.411072	151.560000
298.504242	151.640000
298.597412	150.660000
298.690582	150.720000
298.783752	151.160000
298.876923	151.520000
298.970093	151.720000
299.063293	152.500000
299.156464	153.020000
299.249634	153.180000
299.342834	153.360000
299.436005	153.740000
299.529205	152.840000
299.622345	152.640000
299.715576	151.860000
299.808716	151.420000
299.901917	151.180000
299.995117	151.860000
300.088287	151.980000
300.181488	152.060000
300.274658	152.140000
300.367828	151.980000
300.461029	151.780000
300.554199	151.720000
300.647400	152.160000
300.740601	152.820000
300.833771	152.700000
300.926971	153.060000
301.020142	152.900000
301.113342	152.820000
301.206512	152.580000
301.299713	153.040000
301.392914	152.520000
301.486084	152.780000
301.579285	152.940000
301.672516	153.140000
301.765686	152.860000
301.858887	153.000000
301.952057	152.600000
302.045288	152.380000
302.138458	152.040000
302.231659	151.960000
302.324860	151.920000
302.418060	151.940000
302.511261	152.020000
302.604462	152.420000
302.697662	152.460000
302.790863	152.220000
302.884064	152.120000
302.977264	152.120000
303.070465	151.980000
303.163666	152.640000
303.256866	153.440000
303.350067	153.240000
303.443268	153.300000
303.536469	153.480000
303.629669	152.680000
303.722870	152.340000
303.816071	152.460000
303.909271	152.440000
304.002472	151.420000
304.095673	151.640000
304.188934	151.180000
304.282104	152.100000
304.375336	152.340000
304.468506	152.420000
304.561768	152.300000
304.654968	152.740000
304.748169	151.900000
304.841370	151.440000
304.934601	152.360000
305.027802	151.920000
305.121002	151.480000
305.214233	151.480000
305.307434	151.920000
305.400665	152.440000
305.493866	152.560000
305.587097	153.160000
305.680298	152.920000
305.773499	153.000000
305.866730	152.380000
305.959930	153.180000
306.053162	153.080000
306.146393	153.100000
306.239594	152.460000
306.332825	152.120000
306.426025	151.920000
306.519287	151.620000
306.612488	151.960000
306.705719	152.080000
306.798920	152.520000
306.892181	152.060000
306.985352	151.760000
307.078613	151.120000
307.171844	151.400000
307.265045	150.500000
307.358276	150.360000
307.451508	150.680000
307.544739	151.420000
307.637970	151.160000
307.731201	151.580000
307.824402	152.040000
307.917633	152.040000
308.010864	152.360000
308.104095	152.760000
308.197327	153.080000
308.290558	153.300000
308.383789	152.900000
308.477020	152.400000
308.570251	151.760000
308.663483	151.280000
308.756714	150.900000
308.849976	151.000000
308.943176	151.560000
309.036438	151.460000
309.129639	151.520000
309.222900	151.580000
309.316101	151.760000
309.409393	151.200000
309.502625	151.320000
309.595856	151.400000
309.689087	151.480000
309.782318	151.720000
309.875580	151.700000
309.968811	152.120000
310.062042	152.020000
310.155273	151.760000
310.248535	152.160000
310.341766	152.200000
310.434998	152.000000
310.528259	152.060000
310.621490	152.560000
310.714722	151.760000
310.807983	151.840000
310.901215	151.620000
310.994476	151.620000
311.087708	151.160000
311.181000	151.520000
311.274200	151.200000
311.367462	151.420000
311.460693	151.180000
311.553986	152.260000
311.647186	152.340000
311.740479	152.940000
311.833710	152.740000
311.926971	152.840000
312.020203	151.680000
312.113464	151.380000
312.206726	150.980000
312.299957	151.240000
312.393219	151.840000
312.486481	152.200000
312.579712	152.300000
312.672974	152.140000
312.766235	152.040000
312.859497	151.780000
312.952759	151.420000
313.045990	152.240000
313.139252	151.940000
313.232513	152.280000
313.325775	152.340000
313.419037	152.120000
313.512299	150.980000
313.605530	151.660000
313.698822	151.760000
313.792053	151.680000
313.885345	151.760000
313.978577	152.280000
314.071869	152.080000
314.165131	152.060000
314.258392	152.140000
314.351654	152.400000
314.444916	151.800000
314.538177	152.340000
314.631439	152.520000
314.724701	152.300000
314.817993	152.080000
314.911255	152.380000
315.004517	151.160000
315.097778	150.540000
315.191040	150.780000
315.284302	151.040000
315.377594	150.820000
315.470856	151.380000
315.564117	151.060000
315.657379	150.760000
315.750671	150.420000
315.843933	150.920000
315.937195	150.420000
316.030518	150.380000
316.123749	150.420000
316.217041	151.200000
316.310303	151.240000
316.403595	151.720000
316.496857	152.200000
316.590149	152.520000
316.683411	151.940000
316.776703	151.220000
316.869965	151.220000
316.963257	151.080000
317.056519	150.360000
317.149811	150.300000
317.243073	150.720000
317.336365	150.700000
317.429626	151.180000
317.522919	151.920000
317.616180	152.120000
317.709473	151.880000
317.802765	151.900000
317.896027	151.520000
317.989319	151.640000
318.082611	151.620000
318.175873	151.540000
318.269165	151.600000
318.362488	151.640000
318.455750	151.140000
318.549042	151.600000
318.642303	152.220000
318.735626	151.940000
318.828888	151.960000
318.922211	151.780000
319.015472	152.000000
319.108765	151.220000
319.202057	151.040000
319.295349	151.220000
319.388641	151.080000
319.481934	150.380000
319.575226	150.740000
319.668518	151.420000
319.761810	151.600000
319.855103	151.860000
319.948395	152.020000
320.041687	152.040000
320.134979	151.800000
320.228271	151.220000
320.321564	151.160000
320.414856	151.040000
320.508148	150.680000
320.601440	150.540000
320.694763	150.720000
320.788025	151.760000
320.881348	151.980000
320.974640	152.280000
321.067963	151.640000
321.161224	151.800000
321.254547	150.660000
321.347839	151.060000
321.441162	150.700000
321.534454	151.400000
321.627747	151.080000
321.721069	152.080000
321.814362	151.760000
321.907654	152.100000
322.000946	151.960000
322.094269	152.840000
322.187561	152.020000
322.280884	152.280000
322.374176	152.160000
322.467468	152.720000
322.560791	152.640000
322.654083	153.500000
322.747406	153.720000
322.840698	154.260000
322.934021	154.220000
323.027344	154.100000
323.120636	153.460000
323.213959	152.980000
323.307251	152.460000
323.400574	152.200000
323.493866	151.600000
323.587219	151.760000
323.680511	152.040000
323.773834	152.180000
323.867157	152.220000
323.960449	152.580000
324.053772	152.500000
324.147095	152.320000
324.240387	152.680000
324.333710	152.600000
324.427032	152.220000
324.520355	151.960000
324.613647	151.500000
324.706970	151.260000
324.800293	151.300000
324.893616	151.820000
324.986938	152.060000
325.080231	152.040000
325.173553	152.300000
325.266876	152.580000
325.360199	152.480000
325.453522	152.140000
325.546875	152.140000
325.640167	152.180000
325.733521	152.440000
325.826813	152.700000
325.920166	152.900000
326.013489	152.980000
326.106812	152.260000
326.200134	151.540000
326.293457	150.840000
326.386780	150.880000
326.480103	150.900000
326.573425	151.060000
326.666748	151.240000
326.760071	151.780000
326.853424	151.540000
326.946747	151.360000
327.040070	152.100000
327.133392	152.200000
327.226715	151.420000
327.320068	151.360000
327.413391	151.960000
327.506714	150.900000
327.600037	150.520000
327.693390	151.000000
327.786713	150.980000
327.880066	150.920000
327.973358	151.720000
328.066742	152.380000
328.160034	152.480000
328.253418	153.060000
328.346710	152.480000
328.440063	152.060000
328.533417	151.480000
328.626740	151.720000
328.720093	151.300000
328.813416	151.520000
328.906769	151.440000
329.000092	151.840000
329.093445	151.700000
329.186768	151.920000
329.280121	152.020000
329.373444	152.420000
329.466797	152.060000
329.560120	152.060000
329.653473	151.740000
329.746796	151.520000
329.840149	151.480000
329.933502	151.580000
330.026825	151.180000
330.120178	151.160000
330.213562	151.300000
330.306854	151.420000
330.400238	151.540000
330.493561	151.620000
330.586945	152.440000
330.680237	152.680000
330.773621	152.480000
330.866974	152.560000
330.960327	152.900000
331.053680	152.460000
331.147003	152.760000
331.240356	153.020000
331.333710	153.260000
331.427063	152.900000
331.520416	152.700000
331.613770	152.220000
331.707123	152.320000
331.800476	152.280000
331.893829	153.220000
331.987152	153.440000
332.080505	153.560000
332.173859	153.180000
332.267212	152.460000
332.360565	151.920000
332.453918	151.560000
332.547333	151.120000
332.640656	151.020000
332.734039	151.500000
332.827362	151.080000
332.920746	151.420000
333.014069	152.040000
333.107452	152.800000
333.200806	152.900000
333.294159	153.080000
333.387543	152.900000
333.480896	152.320000
333.574249	151.720000
333.667603	151.440000
333.760956	151.880000
333.854340	151.640000
333.947693	151.840000
334.041046	152.060000
334.134430	152.280000
334.227783	151.840000
334.321136	151.880000
334.414520	151.540000
334.507874	151.420000
334.601227	151.120000
334.694611	151.220000
334.787964	151.480000
334.881348	152.220000
334.974701	152.400000
335.068085	152.260000
335.161438	152.620000
335.254822	152.360000
335.348175	152.180000
335.441559	151.780000
335.534943	152.520000
335.628296	152.160000
335.721680	152.280000
335.815033	152.220000
335.908417	152.520000
336.001770	152.440000
336.095154	152.300000
336.188538	151.960000
336.281891	151.740000
336.375275	151.120000
336.468658	150.720000
336.562012	150.900000
336.655396	151.560000
336.748779	151.920000
336.842133	152.060000
336.935516	152.340000
337.028900	151.860000
337.122284	151.520000
337.215637	151.700000
337.309021	151.940000
337.402435	151.400000
337.495789	151.460000
337.589203	151.340000
337.682526	150.860000
337.775940	151.060000
337.869324	151.500000
337.962708	151.120000
338.056091	151.760000
338.149475	151.460000
338.242859	151.520000
338.336243	151.060000
338.429626	151.820000
338.523010	151.600000
338.616394	151.780000
338.709778	152.000000
338.803162	152.560000
338.896545	152.540000
338.989929	152.320000
339.083313	152.580000
339.176697	152.120000
339.270081	151.980000
339.363464	152.420000
339.456848	152.560000
339.550232	152.120000
339.643616	152.120000
339.737030	151.920000
339.830383	151.340000
339.923828	151.340000
340.017181	151.500000
340.110596	151.600000
340.203949	151.660000
340.297363	151.580000
340.390778	151.560000
340.484161	151.880000
340.577545	151.700000
340.670959	152.020000
340.764343	151.940000
340.857727	151.800000
340.951111	151.000000
341.044525	151.280000
341.137909	150.480000
341.231293	150.600000
341.324707	150.460000
341.418091	151.480000
341.511505	151.380000
341.604889	152.140000
341.698303	151.940000
341.791687	152.140000
341.885071	151.340000
341.978485	150.840000
342.071899	150.740000
342.165283	151.100000
342.258698	151.360000
342.352081	152.100000
342.445496	152.980000
342.538879	152.940000
342.632324	152.520000
342.725708	152.360000
342.819122	151.840000
342.912506	151.500000
343.005920	151.520000
343.099335	152.680000
343.192719	152.520000
343.286133	152.780000
343.379547	152.820000
343.472931	153.060000
343.566345	152.000000
343.659760	152.300000
343.753143	151.940000
343.846558	151.500000
343.939972	151.280000
344.033386	152.040000
344.126770	151.700000
344.220184	151.820000
344.313599	152.460000
344.407043	152.360000
344.500427	151.680000
344.593872	152.580000
344.687225	152.540000
344.780670	151.880000
344.874054	151.920000
344.967499	152.700000
345.060913	152.000000
345.154327	152.200000
345.247742	152.360000
345.341156	152.060000
345.434570	151.480000
345.527985	151.720000
345.621399	151.920000
345.714813	151.860000
345.808228	152.300000
345.901642	152.120000
345.995056	151.740000
346.088470	151.660000
346.181885	151.640000
346.275299	151.420000
346.368713	151.340000
346.462128	151.160000
346.555573	151.080000
346.648987	151.560000
346.742401	151.460000
346.835815	152.060000
346.929260	151.920000
347.022644	151.900000
347.116119	151.860000
347.209503	152.140000
347.302948	152.660000
347.396362	153.360000
347.489807	153.640000
347.583221	154.160000
347.676636	153.840000
347.770050	152.800000
347.863495	151.980000
347.956909	151.700000
348.050323	150.940000
348.143768	150.840000
348.237183	150.740000
348.330597	151.580000
348.424042	151.840000
348.517456	152.520000
348.610901	152.800000
348.704315	152.740000
348.797760	151.880000
348.891174	151.040000
348.984619	150.060000
349.078033	150.540000
349.171448	151.600000
349.264923	151.560000
349.358337	151.880000
349.451782	152.180000
349.545197	151.480000
349.638641	150.480000
349.732086	150.360000
349.825500	151.060000
349.918945	150.800000
350.012390	151.040000
350.105804	151.480000
350.199249	152.000000
350.292664	151.860000
350.386108	152.280000
350.479553	152.700000
350.572968	152.800000
350.666412	152.780000
350.759857	152.640000
350.853302	153.000000
350.946716	152.320000
351.040161	151.960000
351.133606	151.960000
351.227081	151.660000
351.320465	151.940000
351.413940	152.260000
351.507355	152.680000
351.600830	152.800000
351.694244	152.760000
351.787720	152.400000
351.881104	152.300000
351.974579	151.920000
352.067993	152.680000
352.161469	152.780000
352.254883	152.360000
352.348358	152.400000
352.441803	152.420000
352.535248	151.660000
352.628693	152.160000
352.722137	152.140000
352.815582	152.400000
352.909027	152.500000
353.002472	152.520000
353.095917	152.480000
353.189362	152.980000
353.282806	152.760000
353.376251	152.680000
353.469696	152.320000
353.563141	152.640000
353.656586	152.020000
353.750061	151.460000
353.843475	151.100000
353.936981	151.920000
354.030396	150.840000
354.123871	151.000000
354.217285	152.280000
354.310760	152.660000
354.404175	152.240000
354.497681	152.260000
354.591095	152.420000
354.684570	151.240000
354.777985	151.180000
354.871490	150.920000
354.964935	151.800000
355.058380	151.780000
355.151855	151.440000
355.245300	151.840000
355.338745	152.560000
355.432220	152.160000
355.525665	151.620000
355.619110	152.780000
355.712585	152.460000
355.806030	151.720000
355.899475	151.280000
355.992950	152.020000
356.086426	152.060000
356.179871	152.020000
356.273346	152.080000
356.366791	152.420000
356.460266	152.380000
356.553711	151.660000
356.647186	151.680000
356.740631	151.860000
356.834106	151.500000
356.927551	151.760000
357.021027	151.880000
357.114471	152.060000
357.207947	152.180000
357.301422	152.760000
357.394867	152.420000
357.488342	152.840000
357.581818	152.840000
357.675262	153.020000
357.768738	152.800000
357.862213	152.340000
357.955658	152.240000
358.049133	152.100000
358.142609	152.420000
358.236053	152.200000
358.329529	152.580000
358.423035	152.700000
358.516449	152.200000
358.609955	152.040000
358.703400	152.740000
358.796906	152.620000
358.890350	152.220000
358.983826	152.900000
359.077271	152.340000
359.170776	152.020000
359.264221	151.680000
359.357727	151.820000
359.451172	151.920000
359.544647	152.060000
359.638123	151.920000
359.731598	152.500000
359.825073	152.880000
359.918549	152.520000
360.012024	152.560000
360.105499	152.140000
360.198975	152.040000
360.292450	151.880000
360.385925	152.000000
360.479401	151.500000
360.572876	151.980000
360.666351	151.920000
360.759857	151.680000
360.853302	151.740000
360.946808	151.620000
361.040253	151.560000
361.133759	151.400000
361.227203	151.520000
361.320709	151.260000
361.414154	151.860000
361.507660	152.120000
361.601105	152.460000
361.694641	152.980000
361.788086	152.780000
361.881592	153.280000
361.975067	152.900000
362.068542	152.860000
362.162018	152.240000
362.255524	152.080000
362.348999	151.720000
362.442474	152.000000
362.535950	151.860000
362.629456	151.920000
362.722931	151.980000
362.816406	152.060000
362.909882	152.100000
363.003387	151.680000
363.096863	152.180000
363.190338	152.540000
363.283875	152.500000
363.377319	152.300000
363.470825	153.120000
363.564301	152.240000
363.657806	152.400000
363.751282	151.860000
363.844788	152.760000
363.938232	151.840000
364.031769	152.440000
364.125214	152.500000
364.218750	153.220000
364.312225	151.800000
364.405731	152.180000
364.499207	151.720000
364.592712	151.460000
364.686188	151.000000
364.779694	151.600000
364.873169	151.800000
364.966675	151.680000
365.060150	151.720000
365.153656	152.120000
365.247131	152.000000
365.340637	152.140000
365.434143	152.960000
365.527618	153.080000
365.621155	152.360000
365.714600	152.460000
365.808136	152.380000
365.901611	150.960000
365.995117	150.560000
366.088593	150.920000
366.182129	150.760000
366.275604	150.660000
366.369110	151.440000
366.462585	151.720000
366.556122	152.480000
366.649567	152.340000
366.743103	152.320000
366.836609	151.880000
366.930115	151.940000
367.023590	151.580000
367.117096	151.700000
367.210602	151.600000
367.304108	152.120000
367.397614	152.760000
367.491119	152.680000
367.584595	152.920000
367.678101	153.420000
367.771606	153.460000
367.865112	152.740000
367.958649	152.220000
368.052124	151.860000
368.145660	151.560000
368.239136	152.020000
368.332672	151.900000
368.426147	152.300000
368.519684	152.400000
368.613159	152.500000
368.706696	151.840000
368.800171	152.100000
368.893707	151.600000
368.987183	151.620000
369.080719	151.720000
369.174225	151.820000
369.267731	152.060000
369.361237	152.400000
369.454742	152.500000
369.548248	152.660000
369.641754	152.240000
369.735260	151.940000
369.828766	151.000000
369.922272	151.540000
370.015808	150.920000
370.109314	150.880000
370.202820	150.520000
370.296356	151.900000
370.389832	151.320000
370.483368	151.320000
370.576874	151.640000
370.670410	152.020000
370.763885	150.880000
370.857422	151.000000
370.950928	150.880000
371.044464	151.520000
371.137939	151.620000
371.231476	152.220000
371.324982	152.840000
371.418518	153.180000
371.512024	152.860000
371.605560	152.600000
371.699066	152.900000
371.792572	152.060000
371.886108	152.440000
371.979614	152.120000
372.073120	152.860000
372.166656	152.440000
372.260162	152.700000
372.353668	152.460000
372.447205	152.640000
372.540710	152.060000
372.634277	152.600000
372.727753	152.700000
372.821320	152.240000
372.914795	151.920000
373.008362	151.540000
373.101837	151.360000
373.195404	151.160000
373.288879	151.300000
373.382446	152.300000
373.475922	152.600000
373.569489	152.740000
373.662964	153.140000
373.756531	153.360000
373.850037	153.000000
373.943573	152.860000
374.037109	152.120000
374.130615	151.940000
374.224152	151.620000
374.317657	151.400000
374.411194	152.540000
374.504730	152.540000
374.598236	152.400000
374.691772	152.340000
374.785309	152.280000
374.878815	150.700000
374.972351	151.280000
375.065887	151.100000
375.159454	152.120000
375.252930	151.720000
375.346497	152.540000
375.440002	153.140000
375.533569	153.200000
375.627045	152.260000
375.720612	152.880000
375.814117	152.980000
375.907684	152.180000
376.001160	151.920000
376.094727	151.620000
376.188232	151.800000
376.281799	151.620000
376.375336	151.740000
376.468872	152.780000
376.562408	153.160000
376.655914	152.780000
376.749451	152.940000
376.842987	153.160000
376.936523	152.660000
377.030060	152.760000
377.123596	152.880000
377.217133	152.140000
377.310669	151.780000
377.404205	151.860000
377.497772	152.220000
377.591278	151.960000
377.684845	153.040000
377.778351	153.460000
377.871918	153.140000
377.965424	152.400000
378.058990	152.360000
378.152496	151.840000
378.246063	151.700000
378.339569	152.180000
378.433136	152.180000
378.526642	152.360000
378.620209	152.440000
378.713745	152.140000
378.807312	152.200000
378.900848	152.400000
378.994385	152.500000
379.087921	151.740000
379.181458	152.100000
379.274994	150.920000
379.368530	150.940000
379.462097	151.180000
379.555634	151.960000
379.649170	151.240000
379.742706	151.820000
379.836273	151.760000
379.929810	151.360000
380.023376	150.900000
380.116882	151.120000
380.210449	151.220000
380.303986	151.160000
380.397552	150.840000
380.491058	151.300000
380.584656	151.120000
380.678162	151.340000
380.771729	151.380000
380.865265	152.500000
380.958832	152.560000
381.052368	153.120000
381.145935	153.240000
381.239471	153.860000
381.333008	153.240000
381.426575	153.140000
381.520111	153.180000
381.613647	153.360000
381.707214	152.820000
381.800751	151.960000
381.894318	152.260000
381.987854	151.520000
382.081421	151.080000
382.174988	151.200000
382.268524	151.740000
382.362091	151.280000
382.455627	152.560000
382.549194	152.340000
382.642731	151.740000
382.736298	151.560000
382.829834	151.360000
382.923401	151.600000
383.016937	151.760000
383.110504	152.360000
383.204041	152.720000
383.297607	153.300000
383.391174	152.120000
383.484741	152.760000
383.578278	152.480000
383.671844	152.020000
383.765411	151.120000
383.858948	151.820000
383.952515	151.500000
384.046051	151.940000
384.139618	152.540000
384.233185	153.160000
384.326721	153.180000
384.420288	153.740000
384.513855	153.680000
384.607422	153.840000
384.700989	154.120000
384.794525	153.440000
384.888123	152.920000
384.981659	153.120000
385.075226	152.600000
385.168762	152.080000
385.262360	152.440000
385.355896	151.540000
385.449463	151.180000
385.542999	151.180000
385.636597	151.900000
385.730164	151.940000
385.823730	152.000000
385.917267	151.700000
386.010834	152.060000
386.104401	151.800000
386.197968	152.080000
386.291534	152.540000
386.385101	152.800000
386.478668	152.920000
386.572235	152.680000
386.665802	151.760000
386.759338	151.480000
386.852905	151.320000
386.946472	150.880000
387.040070	151.100000
387.133606	151.520000
387.227203	151.700000
387.320740	152.040000
387.414337	152.140000
387.507874	151.800000
387.601471	151.760000
387.695007	151.480000
387.788605	151.040000
387.882141	151.400000
387.975739	151.420000
388.069275	151.580000
388.162872	152.220000
388.256439	152.320000
388.350037	151.500000
388.443604	151.660000
388.537170	151.380000
388.630737	151.860000
388.724304	151.920000
388.817871	152.100000
388.911438	152.080000
389.005005	152.540000
389.098602	152.340000
389.192169	152.400000
389.285736	153.160000
389.379333	152.940000
389.472870	152.740000
389.566467	152.480000
389.660034	152.340000
389.753632	151.740000
389.847168	152.320000
389.940765	152.340000
390.034332	152.400000
390.127930	152.160000
390.221466	152.020000
390.315063	151.380000
390.408630	150.660000
390.502228	149.680000
390.595795	150.120000
390.689362	150.120000
390.782959	150.540000
390.876526	151.200000
390.970093	151.540000
391.063690	151.840000
391.157257	152.060000
391.250824	152.460000
391.344421	152.120000
391.437988	152.740000
391.531555	152.820000
391.625153	152.700000
391.718750	152.420000
391.812317	152.660000
391.905914	152.100000
391.999481	152.080000
392.093079	152.120000
392.186615	152.320000
392.280243	152.280000
392.373779	152.760000
392.467407	153.100000
392.560944	153.200000
392.654572	152.680000
392.748108	152.580000
392.841736	152.560000
392.935303	151.640000
393.028900	151.540000
393.122467	151.800000
393.216064	151.660000
393.309631	150.980000
393.403229	150.940000
393.496796	150.980000
393.590393	150.140000
393.683990	150.600000
393.777557	151.540000
393.871155	151.720000
393.964722	152.020000
394.058350	152.520000
394.151917	152.380000
394.245514	151.880000
394.339081	152.460000
394.432678	152.620000
394.526245	152.500000
394.619873	152.320000
394.713409	152.540000
394.807037	152.240000
394.900604	152.140000
394.994202	152.280000
395.087769	152.660000
395.181396	152.260000
395.274994	152.560000
395.368561	152.040000
395.462158	152.240000
395.555756	151.660000
395.649353	152.020000
395.742920	151.680000
395.836517	152.400000
395.930115	151.480000
396.023712	151.840000
396.117279	152.000000
396.210876	151.580000
396.304474	151.280000
396.398071	152.120000
396.491669	152.240000
396.585266	151.680000
396.678833	151.560000
396.772461	151.760000
396.866028	151.600000
396.959656	151.460000
397.053223	151.620000
397.146851	151.620000
397.240417	151.100000
397.334015	151.820000
397.427582	151.600000
397.521210	151.620000
397.614807	152.080000
397.708405	152.560000
397.802002	151.820000
397.895599	152.400000
397.989197	152.360000
398.082794	152.400000
398.176392	152.340000
398.269989	152.300000
398.363586	152.080000
398.457184	152.920000
398.550781	152.960000
398.644379	152.640000
398.737976	152.740000
398.831573	152.760000
398.925201	151.920000
399.018768	151.780000
399.112396	151.720000
399.205963	152.300000
399.299591	152.280000
399.393158	152.580000
399.486786	152.760000
399.580353	153.400000
399.673981	153.200000
399.767578	154.440000
399.861206	155.520000
399.954773	157.640000
400.048401	158.720000
400.141998	159.520000
400.235596	159.780000
400.329193	159.260000
400.422791	158.120000
400.516418	157.280000
400.610016	156.660000
400.703613	156.820000
400.797211	156.520000
400.890808	156.260000
400.984436	156.420000
401.078033	156.600000
401.171631	155.080000
401.265259	155.180000
401.358826	155.100000
401.452484	154.520000
401.546051	154.480000
401.639679	154.680000
401.733246	154.400000
401.826904	153.980000
401.920471	153.340000
402.014099	152.860000
402.107697	152.580000
402.201324	152.480000
402.294891	152.340000
402.388550	152.880000
402.482147	152.960000
402.575745	153.000000
402.669373	152.460000
402.762970	152.440000
402.856567	152.220000
402.950195	152.380000
403.043793	152.420000
403.137390	153.540000
403.231018	152.960000
403.324615	153.520000
403.418243	153.240000
403.511841	153.840000
403.605469	153.240000
403.699066	153.880000
403.792694	153.500000
403.886292	153.700000
403.979919	152.880000
404.073517	152.780000
404.167145	152.760000
404.260712	152.940000
404.354370	152.420000
404.447937	152.760000
404.541595	152.780000
404.635162	153.040000
404.728821	153.020000
404.822418	152.780000
404.916046	152.100000
405.009644	152.400000
405.103271	152.320000
405.196899	152.040000
405.290497	152.260000
405.384125	152.940000
405.477722	152.460000
405.571350	151.960000
405.664948	152.360000
405.758575	152.240000
405.852203	151.580000
405.945801	151.760000
406.039429	151.880000
406.133057	151.420000
406.226654	151.540000
406.320312	151.840000
406.413879	151.820000
406.507538	152.200000
406.601135	151.780000
406.694763	152.240000
406.788361	152.200000
406.882019	152.000000
406.975586	151.940000
407.069244	152.800000
407.162872	152.600000
407.256470	152.360000
407.350098	152.240000
407.443726	152.100000
407.537323	151.440000
407.630951	151.760000
407.724579	151.600000
407.818207	152.220000
407.911804	151.800000
408.005432	151.940000
408.099060	152.000000
408.192688	152.620000
408.286285	152.300000
408.379913	152.180000
408.473572	152.580000
408.567169	151.960000
408.660828	151.820000
408.754395	151.520000
408.848053	151.740000
408.941650	151.700000
409.035309	151.300000
409.128906	151.420000
409.222565	151.680000
409.316132	152.000000
409.409790	151.580000
409.503387	151.840000
409.597046	151.740000
409.690674	151.740000
409.784302	151.580000
409.877930	151.720000
409.971558	152.100000
410.065186	151.840000
410.158783	151.720000
410.252411	151.720000
410.346039	152.220000
410.439667	152.160000
410.533295	152.540000
410.626923	153.140000
410.720551	152.880000
410.814209	153.120000
410.907806	153.300000
411.001465	152.740000
411.095062	152.580000
411.188721	152.960000
411.282318	152.140000
411.375977	151.500000
411.469574	151.820000
411.563232	151.260000
411.656830	151.080000
411.750488	151.060000
411.844086	151.360000
411.937744	151.900000
412.031372	152.020000
412.125000	152.040000
412.218628	152.240000
412.312256	152.560000
412.405884	152.620000
412.499512	152.500000
412.593170	152.580000
412.686798	152.640000
412.780426	152.040000
412.874054	151.680000
412.967682	151.980000
413.061310	152.240000
413.154968	152.420000
413.248566	152.740000
413.342224	152.620000
413.435852	152.600000
413.529510	152.240000
413.623108	151.520000
413.716766	151.340000
413.810364	151.640000
413.904022	151.340000
413.997650	151.260000
414.091309	151.980000
414.184906	152.100000
414.278564	151.800000
414.372192	152.300000
414.465851	152.480000
414.559479	152.400000
414.653107	153.040000
414.746735	152.740000
414.840393	152.680000
414.934021	152.860000
415.027649	152.320000
415.121277	152.060000
415.214935	152.560000
415.308563	152.540000
415.402191	151.960000
415.495850	152.260000
415.589478	151.940000
415.683136	151.560000
415.776733	151.620000
415.870422	152.440000
415.964020	151.800000
416.057678	151.860000
416.151306	152.180000
416.244965	151.880000
416.338562	151.420000
416.432251	152.480000
416.525848	153.240000
416.619507	153.360000
416.713165	153.660000
416.806793	153.860000
416.900421	153.660000
416.994080	152.560000
417.087708	152.420000
417.181366	152.120000
417.274994	152.100000
417.368622	152.160000
417.462280	152.740000
417.555908	152.560000
417.649567	152.320000
417.743195	152.080000
417.836853	152.000000
417.930481	152.200000
418.024170	152.260000
418.117767	153.000000
418.211426	153.540000
418.305054	153.580000
418.398712	153.100000
418.492340	153.180000
418.585999	153.120000
418.679626	153.020000
418.773285	153.020000
418.866913	153.300000
418.960571	153.420000
419.054230	153.180000
419.147858	152.960000
419.241516	153.080000
419.335144	152.540000
419.428802	152.240000
419.522461	151.980000
419.616089	151.740000
419.709747	151.440000
419.803375	151.700000
419.897034	151.500000
419.990662	151.480000
420.084320	151.880000
420.177979	152.360000
420.271606	152.520000
420.365295	153.160000
420.458893	153.520000
420.552582	153.440000
420.646210	153.140000
420.739868	153.140000
420.833496	152.940000
420.927155	152.480000
421.020782	152.240000
421.114471	151.700000
421.208069	151.640000
421.301758	151.900000
421.395386	152.120000
421.489044	152.080000
421.582703	152.580000
421.676361	153.260000
421.769989	152.580000
421.863647	152.980000
421.957306	153.000000
422.050934	152.820000
422.144592	152.220000
422.238251	152.100000
422.331909	151.900000
422.425537	152.080000
422.519196	151.960000
422.612854	151.820000
422.706543	151.980000
422.800140	152.140000
422.893829	151.640000
422.987457	151.400000
423.081146	151.540000
423.174744	152.100000
423.268433	151.480000
423.362061	151.600000
423.455750	151.880000
423.549347	152.080000
423.643036	151.260000
423.736664	152.040000
423.830353	152.300000
423.924011	152.900000
424.017639	152.240000
424.111298	152.840000
424.204956	152.260000
424.298615	152.340000
424.392273	151.720000
424.485931	151.940000
424.579559	151.940000
424.673218	151.880000
424.766876	151.800000
424.860535	151.400000
424.954193	151.300000
425.047882	151.500000
425.141510	151.720000
425.235199	151.780000
425.328796	152.160000
425.422485	152.240000
425.516113	151.420000
425.609802	151.460000
425.703430	151.480000
425.797119	151.260000
425.890747	151.520000
425.984436	152.140000
426.078064	152.020000
426.171753	151.780000
426.265411	151.880000
426.359070	151.900000
426.452728	151.500000
426.546356	151.340000
426.640015	151.400000
426.733673	151.520000
426.827332	151.200000
426.920990	152.100000
427.014648	152.180000
427.108307	152.360000
427.201965	152.760000
427.295624	153.240000
427.389282	152.340000
427.482941	152.720000
427.576630	152.700000
427.670258	152.120000
427.763947	151.720000
427.857574	151.740000
427.951263	151.600000
428.044922	151.260000
428.138611	151.540000
428.232239	152.180000
428.325928	152.820000
428.419556	153.180000
428.513245	153.260000
428.606903	153.420000
428.700562	152.740000
428.794220	151.980000
428.887878	151.280000
428.981537	151.580000
429.075195	151.400000
429.168854	151.920000
429.262512	152.480000
429.356201	152.800000
429.449860	152.580000
429.543518	152.540000
429.637177	152.620000
429.730835	152.560000
429.824493	152.380000
429.918182	152.660000
430.011810	152.300000
430.105530	151.600000
430.199158	151.600000
430.292847	151.640000
430.386475	151.260000
430.480164	151.300000
430.573792	151.020000
430.667511	151.020000
430.761139	151.400000
430.854828	152.120000
430.948456	152.400000
431.042145	153.460000
431.135834	153.180000
431.229492	153.060000
431.323151	152.960000
431.416809	152.800000
431.510468	152.260000
431.604156	152.380000
431.697815	152.560000
431.791473	152.020000
431.885132	151.760000
431.978821	152.300000
432.072479	152.580000
432.166138	152.760000
432.259827	152.780000
432.353485	153.460000
432.447174	153.360000
432.540802	153.040000
432.634491	153.080000
432.728149	153.600000
432.821838	154.340000
432.915466	153.960000
433.009186	154.260000
433.102814	153.460000
433.196503	152.960000
433.290131	152.160000
433.383850	152.560000
433.477509	152.440000
433.571167	153.520000
433.664856	154.220000
433.758514	154.660000
433.852173	154.300000
433.945862	154.000000
434.039520	153.280000
434.133179	152.400000
434.226868	151.660000
434.320526	151.260000
434.414185	151.980000
434.507874	151.900000
434.601562	152.580000
434.695221	152.760000
434.788910	153.260000
434.882538	153.420000
434.976257	153.280000
435.069885	152.880000
435.163574	153.180000
435.257233	152.680000
435.350922	152.100000
435.444580	151.900000
435.538269	151.720000
435.631897	152.060000
435.725616	152.880000
435.819275	153.580000
435.912964	154.460000
436.006622	155.060000
436.100311	154.740000
436.193970	153.800000
436.287628	153.040000
436.381317	152.420000
436.474976	152.000000
436.568665	151.300000
436.662323	151.660000
436.756012	151.820000
436.849670	151.940000
436.943390	151.880000
437.037018	152.140000
437.130737	152.220000
437.224365	151.860000
437.318085	151.740000
437.411713	151.820000
437.505432	152.180000
437.599060	152.680000
437.692780	153.300000
437.786407	153.240000
437.880127	153.220000
437.973755	152.660000
438.067474	151.880000
438.161133	151.940000
438.254822	152.320000
438.348480	152.200000
438.442169	152.980000
438.535828	153.680000
438.629517	153.080000
438.723175	152.320000
438.816864	152.820000
438.910553	152.280000
439.004211	151.840000
439.097900	151.680000
439.191559	152.100000
439.285248	151.260000
439.378906	151.520000
439.472626	151.360000
439.566284	151.680000
439.659973	151.640000
439.753632	151.820000
439.847321	152.140000
439.940979	152.380000
440.034698	152.240000
440.128326	151.880000
440.222046	151.620000
440.315674	150.840000
440.409393	150.880000
440.503082	150.620000
440.596741	151.120000
440.690430	151.440000
440.784088	151.500000
440.877777	150.960000
440.971466	151.160000
441.065125	150.780000
441.158813	150.560000
441.252502	150.820000
441.346161	151.000000
441.439850	151.420000
441.533539	151.440000
441.627197	151.420000
441.720886	151.380000
441.814606	151.880000
441.908234	151.780000
442.001953	151.780000
442.095612	152.000000
442.189301	151.820000
442.282959	151.900000
442.376678	151.220000
442.470306	151.960000
442.564026	151.660000
442.657684	151.780000
442.751404	151.580000
442.845032	152.580000
442.938751	151.780000
443.032440	152.400000
443.126099	152.260000
443.219788	152.700000
443.313477	152.100000
443.407166	152.520000
443.500824	152.100000
443.594513	152.100000
443.688202	151.760000
443.781891	151.460000
443.875549	151.160000
443.969238	151.520000
444.062927	152.020000
444.156647	151.600000
444.250275	152.320000
444.343994	152.320000
444.437653	152.000000
444.531372	151.560000
444.625031	151.540000
444.718719	150.980000
444.812378	150.900000
444.906097	150.860000
444.999756	150.440000
445.093445	150.760000
445.187103	150.740000
445.280823	151.420000
445.374512	151.280000
445.468201	151.760000
445.561859	151.420000
445.655548	151.640000
445.749237	150.920000
445.842926	151.020000
445.936615	151.280000
446.030304	151.300000
446.123962	151.620000
446.217651	151.780000
446.311340	152.020000
446.405029	151.520000
446.498749	151.400000
446.592407	150.980000
446.686096	151.020000
446.779755	151.060000
446.873474	151.420000
446.967133	151.580000
447.060852	151.180000
447.154510	151.200000
447.248230	151.060000
447.341858	150.880000
447.435577	150.300000
447.529236	150.440000
447.622955	150.220000
447.716644	150.180000
447.810333	150.660000
447.904022	151.740000
447.997711	151.800000
448.091400	152.060000
448.185059	152.060000
448.278748	151.900000
448.372437	151.260000
448.466125	151.720000
448.559814	151.500000
448.653503	151.860000
448.747192	151.840000
448.840912	152.580000
448.934570	152.520000
449.028290	153.180000
449.121948	152.860000
449.215637	152.400000
449.309296	151.680000
449.403015	151.700000
449.496674	151.440000
449.590393	151.440000
449.684052	151.560000
449.777771	152.500000
449.871429	151.960000
449.965149	151.600000
450.058838	151.880000
450.152527	152.360000
450.246216	151.880000
450.339905	152.040000
450.433594	151.940000
450.527283	152.500000
450.620972	152.100000
450.714661	151.900000
450.808350	152.060000
450.902039	152.540000
450.995728	152.100000
451.089417	152.060000
451.183105	151.960000
451.276794	152.580000
451.370514	152.060000
451.464172	151.200000
451.557892	151.200000
451.651550	151.540000
451.745270	150.760000
451.838928	150.420000
451.932648	151.060000
452.026306	151.500000
452.120026	150.900000
452.213684	151.140000
452.307404	151.740000
452.401062	151.700000
452.494781	151.620000
452.588470	151.760000
452.682159	151.480000
452.775848	151.500000
452.869537	150.860000
452.963226	150.260000
453.056915	150.560000
453.150604	150.520000
453.244293	150.620000
453.337982	151.760000
453.431671	152.280000
453.525360	152.640000
453.619049	153.040000
453.712769	152.660000
453.806427	151.660000
453.900146	151.380000
453.993805	150.920000
454.087555	151.060000
454.181213	151.240000
454.274933	151.720000
454.368591	151.600000
454.462311	151.560000
454.555969	151.220000
454.649689	152.200000
454.743347	151.720000
454.837067	152.540000
454.930756	153.200000
455.024445	153.360000
455.118134	152.560000
455.211853	152.960000
455.305542	152.320000
455.399231	152.000000
455.492920	151.780000
455.586609	151.820000
455.680298	152.080000
455.773987	151.820000
455.867676	151.580000
455.961365	152.060000
456.055084	151.840000
456.148773	151.400000
456.242493	151.760000
456.336151	151.840000
456.429871	151.900000
456.523529	152.500000
456.617249	152.540000
456.710907	152.860000
456.804626	152.820000
456.898315	152.280000
456.992035	151.820000
457.085693	151.380000
457.179413	150.420000
457.273102	151.440000
457.366791	151.420000
457.460480	151.740000
457.554199	152.820000
457.647888	153.280000
457.741577	152.060000
457.835266	152.280000
457.928955	152.140000
458.022644	151.980000
458.116364	152.460000
458.210052	152.580000
458.303741	152.400000
458.397461	151.960000
458.491119	151.000000
458.584839	150.960000
458.678528	150.880000
458.772247	150.820000
458.865906	151.120000
458.959625	152.480000
459.053284	151.840000
459.147003	151.800000
459.240692	152.340000
459.334412	152.300000
459.428070	151.520000
459.521790	151.860000
459.615479	151.900000
459.709198	152.260000
459.802887	152.080000
459.896576	151.680000
459.990265	151.860000
460.083954	152.260000
460.177673	151.080000
460.271362	151.420000
460.365051	151.720000
460.458740	151.060000
460.552429	150.440000
460.646149	150.500000
460.739838	149.900000
460.833527	150.420000
460.927246	150.680000
461.020905	150.600000
461.114655	150.900000
461.208313	151.560000
461.302032	150.980000
461.395691	151.260000
461.489441	151.400000
461.583099	151.140000
461.676819	150.620000
461.770477	150.840000
461.864197	150.420000
461.957916	150.440000
462.051605	150.380000
462.145294	151.500000
462.238983	151.160000
462.332703	151.620000
462.426392	152.080000
462.520081	152.220000
462.613770	151.440000
462.707489	151.820000
462.801178	151.640000
462.894867	151.340000
462.988556	151.120000
463.082275	151.180000
463.175964	150.600000
463.269684	150.840000
463.363342	150.760000
463.457092	150.620000
463.550751	150.680000
463.644470	151.100000
463.738129	150.760000
463.831879	151.240000
463.925537	152.320000
464.019257	152.260000
464.112946	152.160000
464.206665	152.080000
464.300323	151.820000
464.394043	151.360000
464.487762	151.400000
464.581451	152.020000
464.675140	151.920000
464.768829	152.180000
464.862549	152.380000
464.956238	152.500000
465.049927	152.180000
465.143646	152.620000
465.237335	152.120000
465.331024	152.360000
465.424713	152.260000
465.518433	152.040000
465.612152	151.480000
465.705811	151.800000
465.799561	151.400000
465.893219	151.340000
465.986938	151.560000
466.080597	151.560000
466.174347	151.600000
466.268005	151.860000
466.361725	151.680000
466.455414	151.540000
466.549133	151.460000
466.642792	151.300000
466.736542	150.700000
466.830231	150.720000
466.923920	150.720000
467.017609	151.100000
467.111328	151.080000
467.205017	151.520000
467.298706	151.420000
467.392426	151.760000
467.486115	151.920000
467.579803	151.500000
467.673523	151.620000
467.767212	151.900000
467.860901	151.840000
467.954651	152.120000
468.048309	152.700000
468.142029	152.460000
468.235718	152.320000
468.329437	151.760000
468.423096	151.560000
468.516846	151.140000
468.610504	150.480000
468.704224	150.020000
468.797913	150.140000
468.891632	150.200000
468.985291	150.480000
469.079010	150.960000
469.172729	150.900000
469.266418	151.480000
469.360107	151.700000
469.453827	151.600000
469.547516	151.660000
469.641205	152.140000
469.734924	152.080000
469.828613	152.220000
469.922302	152.340000
470.016022	152.420000
470.109711	152.460000
470.203430	151.800000
470.297150	150.620000
470.390808	150.820000
470.484558	150.760000
470.578217	151.040000
470.671936	151.540000
470.765625	152.800000
470.859344	152.500000
470.953003	152.920000
471.046753	152.600000
471.140411	151.960000
471.234131	151.740000
471.327820	151.880000
471.421539	151.640000
471.515228	151.500000
471.608948	152.100000
471.702637	151.480000
471.796326	151.020000
471.890045	151.260000
471.983734	151.400000
472.077423	151.080000
472.171143	151.600000
472.264832	151.800000
472.358521	151.440000
472.452240	151.360000
472.545929	151.860000
472.639648	151.640000
472.733337	151.920000
472.827057	151.780000
472.920746	151.660000
473.014465	152.080000
473.108124	152.180000
473.201874	152.240000
473.295532	152.220000
473.389252	152.820000
473.482941	152.580000
473.576660	152.100000
473.670319	151.840000
473.764069	152.080000
473.857727	151.920000
473.951477	151.720000
474.045166	152.620000
474.138855	152.460000
474.232574	152.160000
474.326263	152.200000
474.419952	152.580000
474.513672	152.220000
474.607361	152.240000
474.701050	152.720000
474.794769	152.780000
474.888458	152.740000
474.982178	152.920000
475.075867	153.340000
475.169586	153.260000
475.263275	152.980000
475.356995	152.540000
475.450653	151.980000
475.544403	151.420000
475.638062	151.820000
475.731812	151.660000
475.825470	151.600000
475.919189	151.940000
476.012878	152.120000
476.106598	151.520000
476.200256	151.720000
476.294006	151.580000
476.387695	151.500000
476.481384	151.460000
476.575104	151.360000
476.668793	151.340000
476.762512	151.140000
476.856201	151.520000
476.949890	151.260000
477.043610	150.900000
477.137299	150.780000
477.230988	151.420000
477.324707	151.000000
477.418396	151.960000
477.512146	152.620000
477.605804	152.540000
477.699524	152.360000
477.793213	152.120000
477.886932	151.540000
477.980591	150.940000
478.074341	150.940000
478.167999	150.240000
478.261749	150.320000
478.355408	150.220000
478.449127	150.600000
478.542816	151.480000
478.636536	152.880000
478.730225	152.960000
478.823944	153.220000
478.917633	153.360000
479.011322	153.380000
479.105042	152.800000
479.198730	153.140000
479.292450	153.020000
479.386139	153.280000
479.479828	153.020000
479.573547	153.320000
479.667267	153.280000
479.760925	153.280000
479.854675	153.100000
479.948334	153.100000
480.042084	152.100000
480.135742	152.120000
480.229462	151.640000
480.323151	151.860000
480.416870	151.040000
480.510529	151.560000
480.604279	151.000000
480.697937	151.900000
480.791656	150.880000
480.885345	150.860000
480.979065	150.760000
481.072754	151.440000
481.166473	151.540000
481.260132	152.080000
481.353882	152.300000
481.447540	152.340000
481.541260	152.140000
481.635010	151.400000
481.728668	151.460000
481.822388	151.340000
481.916077	151.180000
482.009796	151.020000
482.103485	151.400000
482.197205	151.260000
482.290863	151.800000
482.384613	151.520000
482.478271	151.220000
482.571991	151.020000
482.665680	151.080000
482.759399	151.320000
482.853058	152.120000
482.946808	152.280000
483.040466	152.420000
483.134216	152.400000
483.227875	152.000000
483.321594	152.180000
483.415283	152.180000
483.509003	151.720000
483.602661	151.680000
483.696411	152.040000
483.790070	151.600000
483.883789	151.760000
483.977478	152.240000
484.071198	152.480000
484.164917	151.660000
484.258606	151.480000
484.352325	151.600000
484.445984	151.840000
484.539734	151.740000
484.633392	151.700000
484.727142	152.340000
484.820801	152.180000
484.914520	151.960000
485.008209	152.140000
485.101929	152.620000
485.195587	152.060000
485.289337	152.160000
485.382996	152.000000
485.476715	152.060000
485.570404	152.520000
485.664124	152.340000
485.757782	152.780000
485.851532	152.340000
485.945190	152.020000
486.038910	151.680000
486.132599	152.120000
486.226318	151.520000
486.319977	151.700000
486.413727	152.140000
486.507446	151.740000
486.601105	151.100000
486.694855	150.820000
486.788513	150.820000
486.882233	150.580000
486.975922	150.780000
487.069641	151.100000
487.163300	151.000000
487.257050	151.940000
487.350708	151.780000
487.444427	151.440000
487.538116	151.260000
487.631836	151.460000
487.725494	151.120000
487.819214	151.320000
487.912903	151.620000
488.006622	152.080000
488.100281	152.320000
488.194031	152.220000
488.287689	152.400000
488.381409	152.960000
488.475098	152.680000
488.568817	152.720000
488.662476	152.420000
488.756226	151.840000
488.849945	150.840000
488.943604	150.900000
489.037354	150.860000
489.131012	150.820000
489.224731	150.660000
489.318390	150.800000
489.412140	150.820000
489.505798	150.820000
489.599518	150.720000
489.693207	151.220000
489.786926	151.380000
489.880585	151.240000
489.974335	151.400000
490.067993	152.820000
490.161713	153.180000
490.255371	153.900000
490.349121	154.080000
490.442780	153.800000
490.536499	152.000000
490.630188	151.760000
490.723907	150.780000
490.817566	151.000000
490.911285	151.360000
491.004974	151.820000
491.098694	151.540000
491.192413	152.560000
491.286102	152.080000
491.379822	152.020000
491.473480	152.280000
491.567200	152.520000
491.660889	151.560000
491.754608	152.040000
491.848267	151.780000
491.941986	151.540000
492.035675	151.360000
492.129395	152.060000
492.223053	151.960000
492.316772	151.960000
492.410461	152.160000
492.504181	152.140000
492.597839	151.540000
492.691559	151.360000
492.785248	151.580000
492.878967	151.880000
492.972626	151.520000
493.066345	151.620000
493.160034	151.260000
493.253754	151.060000
493.347412	150.280000
493.441132	150.700000
493.534882	151.260000
493.628540	151.600000
493.722260	152.000000
493.815918	152.440000
493.909668	152.860000
494.003326	153.060000
494.097046	153.200000
494.190704	152.960000
494.284454	152.800000
494.378113	152.680000
494.471832	152.340000
494.565491	152.020000
494.659210	152.080000
494.752899	152.620000
494.846619	152.300000
494.940277	152.100000
495.033997	152.000000
495.127686	151.620000
495.221405	151.180000
495.315063	151.240000
495.408783	151.500000
495.502441	151.800000
495.596191	152.020000
495.689850	151.580000
495.783569	151.800000
495.877228	151.620000
495.970947	151.260000
496.064697	150.900000
496.158356	152.120000
496.252075	151.800000
496.345734	151.580000
496.439453	152.820000
496.533142	153.160000
496.626862	153.100000
496.720520	153.240000
496.814240	153.320000
496.907898	152.340000
497.001617	152.560000
497.095306	151.880000
497.189026	151.840000
497.282684	151.940000
497.376404	152.220000
497.470062	152.080000
497.563782	152.000000
497.657471	152.060000
497.751190	152.020000
497.844849	151.940000
497.938568	152.200000
498.032227	152.200000
498.125946	152.180000
498.219635	152.060000
498.313354	152.140000
498.407074	151.340000
498.500732	151.660000
498.594452	151.740000
498.688110	151.460000
498.781830	151.080000
498.875519	151.540000
498.969238	151.160000
499.062897	150.800000
499.156616	151.520000
499.250275	151.700000
499.343994	151.280000
499.437653	151.400000
499.531372	151.700000
499.625061	151.880000
499.718781	152.260000
499.812439	152.720000
499.906158	152.640000
499.999817	152.420000
500.093536	151.940000
500.187195	151.980000
500.280914	152.220000
500.374573	152.340000
500.468323	152.420000
500.561981	153.040000
500.655701	152.520000
500.749420	151.980000
500.843079	152.340000
500.936798	152.440000
501.030457	152.180000
501.124176	152.440000
501.217834	152.560000
501.311554	152.380000
501.405212	152.240000
501.498962	151.580000
501.592621	151.480000
501.686340	152.120000
501.779999	152.040000
501.873718	152.180000
501.967377	152.680000
502.061096	153.020000
502.154755	152.260000
502.248474	152.440000
502.342133	152.320000
502.435852	152.140000
502.529510	152.520000
502.623230	153.100000
502.716888	152.620000
502.810608	152.700000
502.904266	153.080000
502.997986	152.120000
503.091705	151.700000
503.185364	151.660000
503.279083	151.660000
503.372772	151.300000
503.466492	151.300000
503.560150	151.320000
503.653870	151.720000
503.747528	151.660000
503.841248	151.760000
503.934906	152.300000
504.028625	152.080000
504.122284	152.100000
504.216003	152.860000
504.309662	152.480000
504.403381	152.600000
504.497040	152.640000
504.590759	152.340000
504.684418	151.920000
504.778137	152.480000
504.871796	152.300000
504.965515	152.460000
505.059174	152.580000
505.152893	151.800000
505.246521	151.360000
505.340240	151.140000
505.433899	150.980000
505.527618	151.260000
505.621338	151.860000
505.714996	151.660000
505.808716	151.560000
505.902374	152.200000
505.996094	152.280000
506.089752	152.220000
506.183472	152.620000
506.277130	153.140000
506.370850	152.920000
506.464508	152.540000
506.558228	152.340000
506.651886	151.660000
506.745605	151.360000
506.839264	151.320000
506.932983	151.280000
507.026611	151.340000
507.120331	152.060000
507.213989	151.520000
507.307709	151.440000
507.401367	151.840000
507.495087	152.840000
507.588745	152.400000
507.682465	153.540000
507.776123	153.540000
507.869843	153.500000
507.963531	152.840000
508.057190	153.340000
508.150909	152.440000
508.244568	152.840000
508.338287	152.560000
508.431946	152.120000
508.525665	151.920000
508.619324	151.740000
508.713013	151.480000
508.806671	151.600000
508.900391	152.800000
508.994049	153.020000
509.087769	152.860000
509.181427	152.980000
509.275146	152.600000
509.368774	151.420000
509.462494	151.320000
509.556152	151.700000
509.649872	152.060000
509.743530	152.120000
509.837250	152.360000
509.930878	152.140000
510.024597	151.780000
510.118256	151.220000
510.211975	151.220000
510.305695	151.020000
510.399353	151.760000
510.493042	152.420000
510.586700	152.600000
510.680420	153.380000
510.774078	153.300000
510.867798	153.320000
510.961426	152.640000
511.055145	152.440000
511.148804	151.940000
511.242523	152.580000
511.336151	151.880000
511.429871	152.700000
511.523529	152.640000
511.617249	152.240000
511.710876	151.600000
511.804596	151.320000
511.898254	150.860000
511.991974	151.180000
512.085632	151.300000
512.179321	151.820000
512.272949	152.460000
512.366699	152.840000
512.460327	152.400000
512.554077	153.200000
512.647766	153.140000
512.741394	152.700000
512.835144	152.920000
512.928772	152.900000
513.022461	152.560000
513.116150	151.940000
513.209839	152.520000
513.303467	152.140000
513.397217	151.880000
513.490845	151.520000
513.584595	151.680000
513.678223	150.980000
513.771912	150.340000
513.865601	150.980000
513.959290	151.180000
514.052917	151.500000
514.146667	152.440000
514.240295	152.920000
514.333984	152.840000
514.427673	152.180000
514.521362	152.760000
514.614990	152.020000
514.708740	152.080000
514.802368	152.260000
514.896057	153.100000
514.989746	153.100000
515.083435	153.080000
515.177124	153.360000
515.270752	152.960000
515.364502	152.620000
515.458130	152.380000
515.551819	152.220000
515.645508	151.860000
515.739197	152.060000
515.832825	151.980000
515.926575	151.460000
516.020203	151.780000
516.113892	152.440000
516.207520	152.160000
516.301270	152.240000
516.394897	152.500000
516.488586	152.860000
516.582275	152.500000
516.675964	152.080000
516.769592	152.040000
516.863281	152.820000
516.956970	152.860000
517.050659	152.740000
517.144287	153.340000
517.238037	153.420000
517.331665	152.220000
517.425354	151.720000
517.519043	151.400000
517.612732	151.280000
517.706421	151.280000
517.800049	151.400000
517.893738	151.240000
517.987427	151.340000
518.081116	151.080000
518.174744	150.820000
518.268433	151.220000
518.362122	151.760000
518.455811	151.820000
518.549438	152.900000
518.643127	153.740000
518.736816	153.640000
518.830505	153.180000
518.924133	152.760000
519.017822	152.280000
519.111511	151.860000
519.205200	152.140000
519.298828	152.520000
519.392517	152.740000
519.486206	152.840000
519.579895	152.680000
519.673523	152.440000
519.767212	152.220000
519.860901	152.720000
519.954590	152.160000
520.048279	151.840000
520.141907	151.780000
520.235596	152.520000
520.329224	152.520000
520.422974	152.860000
520.516602	152.860000
520.610291	152.440000
520.703918	152.200000
520.797607	152.120000
520.891296	152.000000
520.984985	152.520000
521.078613	153.300000
521.172302	152.400000
521.265930	152.980000
521.359680	153.500000
521.453308	153.260000
521.546997	152.940000
521.640625	153.460000
521.734314	152.780000
521.827942	152.280000
521.921692	152.420000
522.015320	152.320000
522.109009	152.200000
522.202698	152.280000
522.296326	152.360000
522.390015	152.780000
522.483704	152.740000
522.577393	152.280000
522.671021	151.880000
522.764709	151.620000
522.858337	151.660000
522.952026	151.740000
523.045654	152.560000
523.139404	153.320000
523.233032	153.360000
523.326721	153.040000
523.420349	153.000000
523.514038	152.680000
523.607666	153.080000
523.701355	153.000000
523.795044	152.980000
523.888733	153.140000
523.982361	153.260000
524.076050	152.180000
524.169678	152.900000
524.263367	152.300000
524.356995	151.540000
524.450684	151.240000
524.544373	151.340000
524.638062	150.720000
524.731750	151.040000
524.825378	151.540000
524.919067	151.060000
525.012695	150.980000
525.106384	150.680000
525.200012	151.060000
525.293701	151.020000
525.387329	151.820000
525.481018	151.820000
525.574646	152.420000
525.668396	152.200000
525.762024	152.560000
525.855713	152.560000
525.949341	152.160000
526.043030	152.080000
526.136658	151.920000
526.230347	151.400000
526.323975	150.880000
526.417664	151.360000
526.511292	151.340000
526.604980	151.360000
526.698608	151.380000
526.792297	151.680000
526.885925	151.600000
526.979614	151.580000
527.073303	151.540000
527.166931	152.020000
527.260620	152.260000
527.354309	152.720000
527.447998	152.560000
527.541626	152.400000
527.635315	152.160000
527.728943	152.560000
527.822632	152.520000
527.916260	152.480000
528.009949	152.720000
528.103577	152.480000
528.197266	151.480000
528.290894	151.500000
528.384583	151.380000
528.478210	151.620000
528.571899	151.840000
528.665527	152.620000
528.759216	152.600000
528.852844	153.300000
528.946533	153.100000
529.040161	153.020000
529.133850	152.340000
529.227478	152.620000
529.321167	152.600000
529.414856	152.900000
529.508484	153.260000
529.602173	153.080000
529.695801	152.400000
529.789490	151.980000
529.883057	151.380000
529.976746	151.500000
530.070374	152.080000
530.164062	152.360000
530.257690	152.800000
530.351379	153.180000
530.445007	152.820000
530.538696	152.240000
530.632324	152.400000
530.726013	152.240000
530.819641	151.760000
530.913330	151.560000
531.006958	151.700000
531.100647	151.360000
531.194275	151.460000
531.287964	151.760000
531.381592	151.920000
531.475220	152.200000
531.568848	152.180000
531.662537	151.960000
531.756226	152.480000
531.849854	152.240000
531.943542	151.940000
532.037170	151.900000
532.130859	152.260000
532.224487	151.720000
532.318176	151.560000
532.411804	152.300000
532.505432	152.820000
532.599060	152.360000
532.692749	152.080000
532.786377	152.740000
532.880066	151.800000
532.973694	151.020000
533.067383	150.800000
533.161011	151.000000
533.254639	150.700000
533.348267	150.880000
533.441956	151.560000
533.535583	151.220000
533.629272	151.520000
533.722900	151.040000
533.816589	150.960000
533.910156	151.180000
534.003845	151.360000
534.097534	151.280000
534.191162	152.000000
534.284851	152.500000
534.378479	151.780000
534.472107	151.840000
534.565735	151.720000
534.659424	151.680000
534.753052	151.560000
534.846741	151.200000
534.940369	152.020000
535.033997	152.060000
535.127625	151.940000
535.221313	152.660000
535.314941	152.840000
535.408630	151.980000
535.502197	152.240000
535.595886	152.100000
535.689514	151.560000
535.783203	152.220000
535.876831	152.620000
535.970459	152.800000
536.064087	152.520000
536.157776	152.200000
536.251404	151.980000
536.345093	151.720000
536.438721	151.500000
536.532349	152.000000
536.626038	151.680000
536.719666	152.000000
536.813293	152.120000
536.906921	151.960000
537.000610	152.180000
537.094238	152.380000
537.187866	151.980000
537.281494	151.780000
537.375183	151.820000
537.468811	151.280000
537.562439	151.640000
537.656067	151.660000
537.749756	151.600000
537.843384	152.340000
537.937012	152.660000
538.030640	152.160000
538.124329	151.900000
538.217896	152.660000
538.311584	152.260000
538.405212	152.480000
538.498901	153.060000
538.592468	154.180000
538.686157	153.240000
538.779785	152.480000
538.873413	152.040000
538.967102	151.460000
539.060730	150.480000
539.154358	151.060000
539.247986	151.780000
539.341675	151.920000
539.435242	152.060000
539.528931	152.240000
539.622559	151.960000
539.716187	152.300000
539.809814	152.440000
539.903503	152.540000
539.997070	152.500000
540.090759	152.240000
540.184387	151.660000
540.278015	151.920000
540.371643	152.320000
540.465332	152.380000
540.558899	152.680000
540.652588	152.780000
540.746216	152.400000
540.839844	152.680000
540.933472	152.620000
541.027100	152.680000
541.120728	152.400000
541.214417	152.460000
541.308044	152.320000
541.401672	152.200000
541.495300	151.840000
541.588928	152.040000
541.682617	151.980000
541.776184	151.640000
541.869873	151.960000
541.963440	152.060000
542.057129	151.800000
542.150757	151.920000
542.244385	151.460000
542.338013	150.960000
542.431641	151.000000
542.525269	151.120000
542.618958	151.320000
542.712524	151.880000
542.806213	151.820000
542.899780	152.280000
542.993469	151.740000
543.087036	151.340000
543.180725	150.940000
543.274292	151.360000
543.367981	151.460000
543.461548	152.360000
543.555237	152.420000
543.648926	152.800000
543.742493	153.520000
543.836182	153.140000
543.929749	152.800000
544.023437	152.840000
544.117004	152.680000
544.210693	152.220000
544.304260	152.440000
544.397949	152.200000
544.491516	152.500000
544.585205	152.540000
544.678772	152.040000
544.772461	152.180000
544.866028	152.340000
544.959717	152.340000
545.053284	152.060000
545.146973	152.280000
545.240540	152.080000
545.334229	152.800000
545.427795	152.800000
545.521423	152.960000
545.615051	152.640000
545.708679	153.100000
545.802307	152.760000
545.895935	153.060000
545.989624	153.960000
546.083191	154.080000
546.176880	153.860000
546.270447	153.520000
546.364136	153.560000
546.457703	152.820000
546.551331	152.900000
546.644958	152.880000
546.738586	153.220000
546.832214	152.640000
546.925842	152.780000
547.019409	152.680000
547.113098	152.220000
547.206665	151.480000
547.300354	151.720000
547.393921	151.900000
547.487549	152.420000
547.581177	152.140000
547.674805	152.480000
547.768433	151.520000
547.862061	151.260000
547.955627	150.600000
548.049316	151.660000
548.142883	151.940000
548.236572	152.600000
548.330139	152.780000
548.423767	152.800000
548.517456	152.080000
548.611023	152.020000
548.704651	151.500000
548.798279	151.300000
548.891907	152.020000
548.985474	151.800000
549.079163	152.140000
549.172729	152.080000
549.266357	151.200000
549.359985	150.780000
549.453613	150.640000
549.547180	149.980000
549.640869	150.780000
549.734436	151.420000
549.828064	151.880000
549.921631	152.280000
550.015320	152.220000
550.108887	152.580000
550.202515	152.760000
550.296143	152.220000
550.389771	152.500000
550.483337	152.620000
550.576965	151.920000
550.670593	152.080000
550.764221	152.220000
550.857849	151.660000
550.951477	151.300000
551.045105	151.220000
551.138672	151.140000
551.232300	150.560000
551.325928	151.340000
551.419556	152.040000
551.513123	152.120000
551.606750	152.060000
551.700378	152.340000
551.794006	151.800000
551.887573	151.660000
551.981201	152.200000
552.074768	151.980000
552.168457	151.900000
552.262024	152.780000
552.355652	152.560000
552.449219	152.880000
552.542847	152.840000
552.636475	152.860000
552.730103	152.020000
552.823669	152.080000
552.917297	151.240000
553.010864	151.520000
553.104553	151.840000
553.198181	151.540000
553.291748	151.920000
553.385376	152.320000
553.478943	151.720000
553.572571	151.780000
553.666199	152.240000
553.759827	151.800000
553.853394	151.140000
553.947021	151.500000
554.040588	151.620000
554.134216	151.820000
554.227783	152.680000
554.321411	153.540000
554.415039	153.200000
554.508667	152.760000
554.602234	152.800000
554.695862	151.960000
554.789429	151.660000
554.883057	152.280000
554.976624	152.420000
555.070251	152.080000
555.163818	152.000000
555.257507	152.000000
555.351074	151.920000
555.444702	153.040000
555.538330	152.740000
555.631897	153.100000
555.725525	152.840000
555.819092	152.580000
555.912720	151.240000
556.006287	152.080000
556.099915	151.900000
556.193481	152.200000
556.287109	152.380000
556.380676	152.460000
556.474304	152.060000
556.567871	152.440000
556.661499	151.980000
556.755066	151.960000
556.848694	152.240000
556.942261	152.080000
557.035889	152.120000
557.129517	152.380000
557.223145	153.000000
557.316711	152.960000
557.410339	153.180000
557.503906	152.900000
557.597473	153.140000
557.691040	152.620000
557.784668	152.440000
557.878296	152.200000
557.971863	152.100000
558.065491	151.640000
558.159058	151.360000
558.252686	152.380000
558.346252	153.200000
558.439880	152.680000
558.533447	152.540000
558.627075	152.500000
558.720642	151.500000
558.814270	150.740000
558.907837	151.040000
559.001465	151.140000
559.095032	151.980000
559.188660	152.560000
559.282227	152.220000
559.375854	152.800000
559.469360	152.600000
559.562988	152.580000
559.656555	152.260000
559.750183	152.740000
559.843750	152.780000
559.937378	152.900000
560.030945	152.480000
560.124573	0.000000
560.218140	0.000000
560.311707	0.000000
560.405334	0.000000
560.498901	0.000000
560.592529	0.000000
560.686096	0.000000
560.779724	0.000000
560.873291	0.000000
560.966858	0.000000
561.060425	0.000000
561.154053	0.000000
561.247620	0.000000
561.341248	0.000000
561.434814	0.000000
561.528381	0.000000
561.621948	0.000000
561.715576	0.000000
561.809143	0.000000
561.902771	0.000000
561.996277	0.000000
562.089905	0.000000
562.183472	0.000000
562.277100	0.000000
